log(E / eV)	log(z / pc)	t / yr	 logQ
6	1	0	49.4236
6.10101	1	0	49.6722
6.20202	1	0	49.8273
6.30303	1	0	49.9083
6.40404	1	0	49.9305
6.50505	1	0	49.9062
6.60606	1	0	49.845
6.70707	1	0	49.7546
6.80808	1	0	49.6411
6.90909	1	0	49.5092
7.0101	1	0	49.3627
7.11111	1	0	49.2047
7.21212	1	0	49.0376
7.31313	1	0	48.8632
7.41414	1	0	48.6831
7.51515	1	0	48.4984
7.61616	1	0	48.3102
7.71717	1	0	48.1191
7.81818	1	0	47.9257
7.91919	1	0	47.7305
8.0202	1	0	47.5339
8.12121	1	0	47.3362
8.22222	1	0	47.1376
8.32323	1	0	46.9383
8.42424	1	0	46.7384
8.52525	1	0	46.5381
8.62626	1	0	46.3374
8.72727	1	0	46.1364
8.82828	1	0	45.9353
8.92929	1	0	45.7339
9.0303	1	0	45.5324
9.13131	1	0	45.3308
9.23232	1	0	45.1291
9.33333	1	0	44.9274
9.43434	1	0	44.7256
9.53535	1	0	44.5237
9.63636	1	0	44.3218
9.73737	1	0	44.1199
9.83838	1	0	43.918
9.93939	1	0	43.716
10.0404	1	0	43.514
10.1414	1	0	43.3121
10.2424	1	0	43.1101
10.3434	1	0	42.9081
10.4444	1	0	42.7061
10.5455	1	0	42.5041
10.6465	1	0	42.302
10.7475	1	0	42.1
10.8485	1	0	41.898
10.9495	1	0	41.696
11.0505	1	0	41.4939
11.1515	1	0	41.2919
11.2525	1	0	41.0899
11.3535	1	0	40.8878
11.4545	1	0	40.6857
11.5556	1	0	40.4837
11.6566	1	0	40.2816
11.7576	1	0	40.0795
11.8586	1	0	39.8773
11.9596	1	0	39.6751
12.0606	1	0	39.4729
12.1616	1	0	39.2707
12.2626	1	0	39.0684
12.3636	1	0	38.866
12.4646	1	0	38.6635
12.5657	1	0	38.4608
12.6667	1	0	38.2581
12.7677	1	0	38.0551
12.8687	1	0	37.8518
12.9697	1	0	37.6483
13.0707	1	0	37.4443
13.1717	1	0	37.2399
13.2727	1	0	37.0348
13.3737	1	0	36.8289
13.4747	1	0	36.622
13.5758	1	0	36.4138
13.6768	1	0	36.204
13.7778	1	0	35.9921
13.8788	1	0	35.7777
13.9798	1	0	35.56
14.0808	1	0	35.3382
14.1818	1	0	35.1112
14.2828	1	0	34.8777
14.3838	1	0	34.636
14.4848	1	0	34.3838
14.5859	1	0	34.1186
14.6869	1	0	33.8368
14.7879	1	0	33.534
14.8889	1	0	33.2049
14.9899	1	0	32.8426
15.0909	1	0	32.4382
15.1919	1	0	31.9809
15.2929	1	0	31.4567
15.3939	1	0	30.8481
15.4949	1	0	30.1331
15.596	1	0	29.2838
15.697	1	0	28.2649
15.798	1	0	27.0322
15.899	1	0	25.5295
16	1	0	23.6863
6	1.01426	0.285705	48.9724
6.10101	1.01426	0.285705	49.221
6.20202	1.01426	0.285705	49.3761
6.30303	1.01426	0.285705	49.457
6.40404	1.01426	0.285705	49.4793
6.50505	1.01426	0.285705	49.455
6.60606	1.01426	0.285705	49.3938
6.70707	1.01426	0.285705	49.3034
6.80808	1.01426	0.285705	49.1899
6.90909	1.01426	0.285705	49.058
7.0101	1.01426	0.285705	48.9115
7.11111	1.01426	0.285705	48.7535
7.21212	1.01426	0.285705	48.5864
7.31313	1.01426	0.285705	48.412
7.41414	1.01426	0.285705	48.2319
7.51515	1.01426	0.285705	48.0472
7.61616	1.01426	0.285705	47.859
7.71717	1.01426	0.285705	47.6679
7.81818	1.01426	0.285705	47.4745
7.91919	1.01426	0.285705	47.2793
8.0202	1.01426	0.285705	47.0827
8.12121	1.01426	0.285705	46.885
8.22222	1.01426	0.285705	46.6864
8.32323	1.01426	0.285705	46.4871
8.42424	1.01426	0.285705	46.2872
8.52525	1.01426	0.285705	46.0869
8.62626	1.01426	0.285705	45.8862
8.72727	1.01426	0.285705	45.6852
8.82828	1.01426	0.285705	45.4841
8.92929	1.01426	0.285705	45.2827
9.0303	1.01426	0.285705	45.0812
9.13131	1.01426	0.285705	44.8796
9.23232	1.01426	0.285705	44.6779
9.33333	1.01426	0.285705	44.4762
9.43434	1.01426	0.285705	44.2744
9.53535	1.01426	0.285705	44.0725
9.63636	1.01426	0.285705	43.8706
9.73737	1.01426	0.285705	43.6687
9.83838	1.01426	0.285705	43.4668
9.93939	1.01426	0.285705	43.2648
10.0404	1.01426	0.285705	43.0628
10.1414	1.01426	0.285705	42.8609
10.2424	1.01426	0.285705	42.6589
10.3434	1.01426	0.285705	42.4569
10.4444	1.01426	0.285705	42.2549
10.5455	1.01426	0.285705	42.0529
10.6465	1.01426	0.285705	41.8508
10.7475	1.01426	0.285705	41.6488
10.8485	1.01426	0.285705	41.4468
10.9495	1.01426	0.285705	41.2448
11.0505	1.01426	0.285705	41.0427
11.1515	1.01426	0.285705	40.8407
11.2525	1.01426	0.285705	40.6386
11.3535	1.01426	0.285705	40.4366
11.4545	1.01426	0.285705	40.2345
11.5556	1.01426	0.285705	40.0324
11.6566	1.01426	0.285705	39.8304
11.7576	1.01426	0.285705	39.6282
11.8586	1.01426	0.285705	39.4261
11.9596	1.01426	0.285705	39.2239
12.0606	1.01426	0.285705	39.0217
12.1616	1.01426	0.285705	38.8195
12.2626	1.01426	0.285705	38.6171
12.3636	1.01426	0.285705	38.4147
12.4646	1.01426	0.285705	38.2123
12.5657	1.01426	0.285705	38.0096
12.6667	1.01426	0.285705	37.8068
12.7677	1.01426	0.285705	37.6039
12.8687	1.01426	0.285705	37.4006
12.9697	1.01426	0.285705	37.1971
13.0707	1.01426	0.285705	36.9931
13.1717	1.01426	0.285705	36.7887
13.2727	1.01426	0.285705	36.5836
13.3737	1.01426	0.285705	36.3777
13.4747	1.01426	0.285705	36.1708
13.5758	1.01426	0.285705	35.9626
13.6768	1.01426	0.285705	35.7527
13.7778	1.01426	0.285705	35.5409
13.8788	1.01426	0.285705	35.3264
13.9798	1.01426	0.285705	35.1088
14.0808	1.01426	0.285705	34.887
14.1818	1.01426	0.285705	34.66
14.2828	1.01426	0.285705	34.4265
14.3838	1.01426	0.285705	34.1848
14.4848	1.01426	0.285705	33.9326
14.5859	1.01426	0.285705	33.6674
14.6869	1.01426	0.285705	33.3855
14.7879	1.01426	0.285705	33.0828
14.8889	1.01426	0.285705	32.7537
14.9899	1.01426	0.285705	32.3914
15.0909	1.01426	0.285705	31.987
15.1919	1.01426	0.285705	31.5297
15.2929	1.01426	0.285705	31.0055
15.3939	1.01426	0.285705	30.3969
15.4949	1.01426	0.285705	29.6819
15.596	1.01426	0.285705	28.8326
15.697	1.01426	0.285705	27.8137
15.798	1.01426	0.285705	26.581
15.899	1.01426	0.285705	25.0783
16	1.01426	0.285705	23.2351
6	1.02853	0.363847	48.7155
6.10101	1.02853	0.363847	48.9641
6.20202	1.02853	0.363847	49.1192
6.30303	1.02853	0.363847	49.2002
6.40404	1.02853	0.363847	49.2225
6.50505	1.02853	0.363847	49.1982
6.60606	1.02853	0.363847	49.137
6.70707	1.02853	0.363847	49.0466
6.80808	1.02853	0.363847	48.933
6.90909	1.02853	0.363847	48.8011
7.0101	1.02853	0.363847	48.6547
7.11111	1.02853	0.363847	48.4967
7.21212	1.02853	0.363847	48.3295
7.31313	1.02853	0.363847	48.1552
7.41414	1.02853	0.363847	47.9751
7.51515	1.02853	0.363847	47.7904
7.61616	1.02853	0.363847	47.6021
7.71717	1.02853	0.363847	47.411
7.81818	1.02853	0.363847	47.2177
7.91919	1.02853	0.363847	47.0225
8.0202	1.02853	0.363847	46.8259
8.12121	1.02853	0.363847	46.6282
8.22222	1.02853	0.363847	46.4296
8.32323	1.02853	0.363847	46.2302
8.42424	1.02853	0.363847	46.0304
8.52525	1.02853	0.363847	45.83
8.62626	1.02853	0.363847	45.6294
8.72727	1.02853	0.363847	45.4284
8.82828	1.02853	0.363847	45.2272
8.92929	1.02853	0.363847	45.0259
9.0303	1.02853	0.363847	44.8244
9.13131	1.02853	0.363847	44.6228
9.23232	1.02853	0.363847	44.4211
9.33333	1.02853	0.363847	44.2193
9.43434	1.02853	0.363847	44.0175
9.53535	1.02853	0.363847	43.8157
9.63636	1.02853	0.363847	43.6138
9.73737	1.02853	0.363847	43.4119
9.83838	1.02853	0.363847	43.2099
9.93939	1.02853	0.363847	43.008
10.0404	1.02853	0.363847	42.806
10.1414	1.02853	0.363847	42.604
10.2424	1.02853	0.363847	42.402
10.3434	1.02853	0.363847	42.2
10.4444	1.02853	0.363847	41.998
10.5455	1.02853	0.363847	41.796
10.6465	1.02853	0.363847	41.594
10.7475	1.02853	0.363847	41.392
10.8485	1.02853	0.363847	41.19
10.9495	1.02853	0.363847	40.9879
11.0505	1.02853	0.363847	40.7859
11.1515	1.02853	0.363847	40.5839
11.2525	1.02853	0.363847	40.3818
11.3535	1.02853	0.363847	40.1798
11.4545	1.02853	0.363847	39.9777
11.5556	1.02853	0.363847	39.7756
11.6566	1.02853	0.363847	39.5735
11.7576	1.02853	0.363847	39.3714
11.8586	1.02853	0.363847	39.1693
11.9596	1.02853	0.363847	38.9671
12.0606	1.02853	0.363847	38.7649
12.1616	1.02853	0.363847	38.5626
12.2626	1.02853	0.363847	38.3603
12.3636	1.02853	0.363847	38.1579
12.4646	1.02853	0.363847	37.9554
12.5657	1.02853	0.363847	37.7528
12.6667	1.02853	0.363847	37.55
12.7677	1.02853	0.363847	37.347
12.8687	1.02853	0.363847	37.1438
12.9697	1.02853	0.363847	36.9403
13.0707	1.02853	0.363847	36.7363
13.1717	1.02853	0.363847	36.5318
13.2727	1.02853	0.363847	36.3267
13.3737	1.02853	0.363847	36.1208
13.4747	1.02853	0.363847	35.9139
13.5758	1.02853	0.363847	35.7057
13.6768	1.02853	0.363847	35.4959
13.7778	1.02853	0.363847	35.2841
13.8788	1.02853	0.363847	35.0696
13.9798	1.02853	0.363847	34.8519
14.0808	1.02853	0.363847	34.6301
14.1818	1.02853	0.363847	34.4032
14.2828	1.02853	0.363847	34.1697
14.3838	1.02853	0.363847	33.9279
14.4848	1.02853	0.363847	33.6758
14.5859	1.02853	0.363847	33.4105
14.6869	1.02853	0.363847	33.1287
14.7879	1.02853	0.363847	32.826
14.8889	1.02853	0.363847	32.4969
14.9899	1.02853	0.363847	32.1345
15.0909	1.02853	0.363847	31.7302
15.1919	1.02853	0.363847	31.2728
15.2929	1.02853	0.363847	30.7486
15.3939	1.02853	0.363847	30.1401
15.4949	1.02853	0.363847	29.4251
15.596	1.02853	0.363847	28.5757
15.697	1.02853	0.363847	27.5569
15.798	1.02853	0.363847	26.3242
15.899	1.02853	0.363847	24.8215
16	1.02853	0.363847	22.9783
6	1.04279	0.446276	48.6221
6.10101	1.04279	0.446276	48.8707
6.20202	1.04279	0.446276	49.0258
6.30303	1.04279	0.446276	49.1068
6.40404	1.04279	0.446276	49.129
6.50505	1.04279	0.446276	49.1047
6.60606	1.04279	0.446276	49.0436
6.70707	1.04279	0.446276	48.9532
6.80808	1.04279	0.446276	48.8396
6.90909	1.04279	0.446276	48.7077
7.0101	1.04279	0.446276	48.5612
7.11111	1.04279	0.446276	48.4032
7.21212	1.04279	0.446276	48.2361
7.31313	1.04279	0.446276	48.0617
7.41414	1.04279	0.446276	47.8816
7.51515	1.04279	0.446276	47.6969
7.61616	1.04279	0.446276	47.5087
7.71717	1.04279	0.446276	47.3176
7.81818	1.04279	0.446276	47.1242
7.91919	1.04279	0.446276	46.929
8.0202	1.04279	0.446276	46.7324
8.12121	1.04279	0.446276	46.5347
8.22222	1.04279	0.446276	46.3361
8.32323	1.04279	0.446276	46.1368
8.42424	1.04279	0.446276	45.9369
8.52525	1.04279	0.446276	45.7366
8.62626	1.04279	0.446276	45.5359
8.72727	1.04279	0.446276	45.335
8.82828	1.04279	0.446276	45.1338
8.92929	1.04279	0.446276	44.9324
9.0303	1.04279	0.446276	44.7309
9.13131	1.04279	0.446276	44.5293
9.23232	1.04279	0.446276	44.3276
9.33333	1.04279	0.446276	44.1259
9.43434	1.04279	0.446276	43.9241
9.53535	1.04279	0.446276	43.7222
9.63636	1.04279	0.446276	43.5203
9.73737	1.04279	0.446276	43.3184
9.83838	1.04279	0.446276	43.1165
9.93939	1.04279	0.446276	42.9145
10.0404	1.04279	0.446276	42.7126
10.1414	1.04279	0.446276	42.5106
10.2424	1.04279	0.446276	42.3086
10.3434	1.04279	0.446276	42.1066
10.4444	1.04279	0.446276	41.9046
10.5455	1.04279	0.446276	41.7026
10.6465	1.04279	0.446276	41.5006
10.7475	1.04279	0.446276	41.2985
10.8485	1.04279	0.446276	41.0965
10.9495	1.04279	0.446276	40.8945
11.0505	1.04279	0.446276	40.6924
11.1515	1.04279	0.446276	40.4904
11.2525	1.04279	0.446276	40.2884
11.3535	1.04279	0.446276	40.0863
11.4545	1.04279	0.446276	39.8842
11.5556	1.04279	0.446276	39.6822
11.6566	1.04279	0.446276	39.4801
11.7576	1.04279	0.446276	39.278
11.8586	1.04279	0.446276	39.0758
11.9596	1.04279	0.446276	38.8737
12.0606	1.04279	0.446276	38.6714
12.1616	1.04279	0.446276	38.4692
12.2626	1.04279	0.446276	38.2669
12.3636	1.04279	0.446276	38.0645
12.4646	1.04279	0.446276	37.862
12.5657	1.04279	0.446276	37.6593
12.6667	1.04279	0.446276	37.4566
12.7677	1.04279	0.446276	37.2536
12.8687	1.04279	0.446276	37.0503
12.9697	1.04279	0.446276	36.8468
13.0707	1.04279	0.446276	36.6428
13.1717	1.04279	0.446276	36.4384
13.2727	1.04279	0.446276	36.2333
13.3737	1.04279	0.446276	36.0274
13.4747	1.04279	0.446276	35.8205
13.5758	1.04279	0.446276	35.6123
13.6768	1.04279	0.446276	35.4025
13.7778	1.04279	0.446276	35.1906
13.8788	1.04279	0.446276	34.9762
13.9798	1.04279	0.446276	34.7585
14.0808	1.04279	0.446276	34.5367
14.1818	1.04279	0.446276	34.3097
14.2828	1.04279	0.446276	34.0762
14.3838	1.04279	0.446276	33.8345
14.4848	1.04279	0.446276	33.5823
14.5859	1.04279	0.446276	33.3171
14.6869	1.04279	0.446276	33.0353
14.7879	1.04279	0.446276	32.7325
14.8889	1.04279	0.446276	32.4034
14.9899	1.04279	0.446276	32.0411
15.0909	1.04279	0.446276	31.6367
15.1919	1.04279	0.446276	31.1794
15.2929	1.04279	0.446276	30.6552
15.3939	1.04279	0.446276	30.0466
15.4949	1.04279	0.446276	29.3316
15.596	1.04279	0.446276	28.4823
15.697	1.04279	0.446276	27.4634
15.798	1.04279	0.446276	26.2307
15.899	1.04279	0.446276	24.7281
16	1.04279	0.446276	22.8848
6	1.05706	0.50345	48.5282
6.10101	1.05706	0.50345	48.7768
6.20202	1.05706	0.50345	48.9319
6.30303	1.05706	0.50345	49.0129
6.40404	1.05706	0.50345	49.0351
6.50505	1.05706	0.50345	49.0108
6.60606	1.05706	0.50345	48.9497
6.70707	1.05706	0.50345	48.8593
6.80808	1.05706	0.50345	48.7457
6.90909	1.05706	0.50345	48.6138
7.0101	1.05706	0.50345	48.4673
7.11111	1.05706	0.50345	48.3093
7.21212	1.05706	0.50345	48.1422
7.31313	1.05706	0.50345	47.9678
7.41414	1.05706	0.50345	47.7877
7.51515	1.05706	0.50345	47.6031
7.61616	1.05706	0.50345	47.4148
7.71717	1.05706	0.50345	47.2237
7.81818	1.05706	0.50345	47.0303
7.91919	1.05706	0.50345	46.8351
8.0202	1.05706	0.50345	46.6386
8.12121	1.05706	0.50345	46.4408
8.22222	1.05706	0.50345	46.2422
8.32323	1.05706	0.50345	46.0429
8.42424	1.05706	0.50345	45.843
8.52525	1.05706	0.50345	45.6427
8.62626	1.05706	0.50345	45.442
8.72727	1.05706	0.50345	45.2411
8.82828	1.05706	0.50345	45.0399
8.92929	1.05706	0.50345	44.8385
9.0303	1.05706	0.50345	44.6371
9.13131	1.05706	0.50345	44.4355
9.23232	1.05706	0.50345	44.2338
9.33333	1.05706	0.50345	44.032
9.43434	1.05706	0.50345	43.8302
9.53535	1.05706	0.50345	43.6283
9.63636	1.05706	0.50345	43.4265
9.73737	1.05706	0.50345	43.2245
9.83838	1.05706	0.50345	43.0226
9.93939	1.05706	0.50345	42.8206
10.0404	1.05706	0.50345	42.6187
10.1414	1.05706	0.50345	42.4167
10.2424	1.05706	0.50345	42.2147
10.3434	1.05706	0.50345	42.0127
10.4444	1.05706	0.50345	41.8107
10.5455	1.05706	0.50345	41.6087
10.6465	1.05706	0.50345	41.4067
10.7475	1.05706	0.50345	41.2047
10.8485	1.05706	0.50345	41.0026
10.9495	1.05706	0.50345	40.8006
11.0505	1.05706	0.50345	40.5986
11.1515	1.05706	0.50345	40.3965
11.2525	1.05706	0.50345	40.1945
11.3535	1.05706	0.50345	39.9924
11.4545	1.05706	0.50345	39.7904
11.5556	1.05706	0.50345	39.5883
11.6566	1.05706	0.50345	39.3862
11.7576	1.05706	0.50345	39.1841
11.8586	1.05706	0.50345	38.9819
11.9596	1.05706	0.50345	38.7798
12.0606	1.05706	0.50345	38.5776
12.1616	1.05706	0.50345	38.3753
12.2626	1.05706	0.50345	38.173
12.3636	1.05706	0.50345	37.9706
12.4646	1.05706	0.50345	37.7681
12.5657	1.05706	0.50345	37.5655
12.6667	1.05706	0.50345	37.3627
12.7677	1.05706	0.50345	37.1597
12.8687	1.05706	0.50345	36.9565
12.9697	1.05706	0.50345	36.7529
13.0707	1.05706	0.50345	36.549
13.1717	1.05706	0.50345	36.3445
13.2727	1.05706	0.50345	36.1394
13.3737	1.05706	0.50345	35.9335
13.4747	1.05706	0.50345	35.7266
13.5758	1.05706	0.50345	35.5184
13.6768	1.05706	0.50345	35.3086
13.7778	1.05706	0.50345	35.0967
13.8788	1.05706	0.50345	34.8823
13.9798	1.05706	0.50345	34.6646
14.0808	1.05706	0.50345	34.4428
14.1818	1.05706	0.50345	34.2158
14.2828	1.05706	0.50345	33.9823
14.3838	1.05706	0.50345	33.7406
14.4848	1.05706	0.50345	33.4885
14.5859	1.05706	0.50345	33.2232
14.6869	1.05706	0.50345	32.9414
14.7879	1.05706	0.50345	32.6387
14.8889	1.05706	0.50345	32.3096
14.9899	1.05706	0.50345	31.9472
15.0909	1.05706	0.50345	31.5428
15.1919	1.05706	0.50345	31.0855
15.2929	1.05706	0.50345	30.5613
15.3939	1.05706	0.50345	29.9528
15.4949	1.05706	0.50345	29.2377
15.596	1.05706	0.50345	28.3884
15.697	1.05706	0.50345	27.3696
15.798	1.05706	0.50345	26.1368
15.899	1.05706	0.50345	24.6342
16	1.05706	0.50345	22.791
6	1.07132	0.5607	48.4665
6.10101	1.07132	0.5607	48.7151
6.20202	1.07132	0.5607	48.8702
6.30303	1.07132	0.5607	48.9512
6.40404	1.07132	0.5607	48.9734
6.50505	1.07132	0.5607	48.9491
6.60606	1.07132	0.5607	48.8879
6.70707	1.07132	0.5607	48.7975
6.80808	1.07132	0.5607	48.684
6.90909	1.07132	0.5607	48.5521
7.0101	1.07132	0.5607	48.4056
7.11111	1.07132	0.5607	48.2476
7.21212	1.07132	0.5607	48.0805
7.31313	1.07132	0.5607	47.9061
7.41414	1.07132	0.5607	47.726
7.51515	1.07132	0.5607	47.5413
7.61616	1.07132	0.5607	47.3531
7.71717	1.07132	0.5607	47.162
7.81818	1.07132	0.5607	46.9686
7.91919	1.07132	0.5607	46.7734
8.0202	1.07132	0.5607	46.5768
8.12121	1.07132	0.5607	46.3791
8.22222	1.07132	0.5607	46.1805
8.32323	1.07132	0.5607	45.9812
8.42424	1.07132	0.5607	45.7813
8.52525	1.07132	0.5607	45.581
8.62626	1.07132	0.5607	45.3803
8.72727	1.07132	0.5607	45.1793
8.82828	1.07132	0.5607	44.9782
8.92929	1.07132	0.5607	44.7768
9.0303	1.07132	0.5607	44.5753
9.13131	1.07132	0.5607	44.3737
9.23232	1.07132	0.5607	44.172
9.33333	1.07132	0.5607	43.9703
9.43434	1.07132	0.5607	43.7685
9.53535	1.07132	0.5607	43.5666
9.63636	1.07132	0.5607	43.3647
9.73737	1.07132	0.5607	43.1628
9.83838	1.07132	0.5607	42.9609
9.93939	1.07132	0.5607	42.7589
10.0404	1.07132	0.5607	42.5569
10.1414	1.07132	0.5607	42.355
10.2424	1.07132	0.5607	42.153
10.3434	1.07132	0.5607	41.951
10.4444	1.07132	0.5607	41.749
10.5455	1.07132	0.5607	41.547
10.6465	1.07132	0.5607	41.3449
10.7475	1.07132	0.5607	41.1429
10.8485	1.07132	0.5607	40.9409
10.9495	1.07132	0.5607	40.7389
11.0505	1.07132	0.5607	40.5368
11.1515	1.07132	0.5607	40.3348
11.2525	1.07132	0.5607	40.1328
11.3535	1.07132	0.5607	39.9307
11.4545	1.07132	0.5607	39.7286
11.5556	1.07132	0.5607	39.5266
11.6566	1.07132	0.5607	39.3245
11.7576	1.07132	0.5607	39.1224
11.8586	1.07132	0.5607	38.9202
11.9596	1.07132	0.5607	38.718
12.0606	1.07132	0.5607	38.5158
12.1616	1.07132	0.5607	38.3136
12.2626	1.07132	0.5607	38.1113
12.3636	1.07132	0.5607	37.9089
12.4646	1.07132	0.5607	37.7064
12.5657	1.07132	0.5607	37.5037
12.6667	1.07132	0.5607	37.301
12.7677	1.07132	0.5607	37.098
12.8687	1.07132	0.5607	36.8947
12.9697	1.07132	0.5607	36.6912
13.0707	1.07132	0.5607	36.4872
13.1717	1.07132	0.5607	36.2828
13.2727	1.07132	0.5607	36.0777
13.3737	1.07132	0.5607	35.8718
13.4747	1.07132	0.5607	35.6649
13.5758	1.07132	0.5607	35.4567
13.6768	1.07132	0.5607	35.2469
13.7778	1.07132	0.5607	35.035
13.8788	1.07132	0.5607	34.8206
13.9798	1.07132	0.5607	34.6029
14.0808	1.07132	0.5607	34.3811
14.1818	1.07132	0.5607	34.1541
14.2828	1.07132	0.5607	33.9206
14.3838	1.07132	0.5607	33.6789
14.4848	1.07132	0.5607	33.4267
14.5859	1.07132	0.5607	33.1615
14.6869	1.07132	0.5607	32.8797
14.7879	1.07132	0.5607	32.5769
14.8889	1.07132	0.5607	32.2478
14.9899	1.07132	0.5607	31.8855
15.0909	1.07132	0.5607	31.4811
15.1919	1.07132	0.5607	31.0238
15.2929	1.07132	0.5607	30.4996
15.3939	1.07132	0.5607	29.891
15.4949	1.07132	0.5607	29.176
15.596	1.07132	0.5607	28.3267
15.697	1.07132	0.5607	27.3078
15.798	1.07132	0.5607	26.0751
15.899	1.07132	0.5607	24.5724
16	1.07132	0.5607	22.7292
6	1.08559	0.605329	48.3994
6.10101	1.08559	0.605329	48.648
6.20202	1.08559	0.605329	48.8031
6.30303	1.08559	0.605329	48.8841
6.40404	1.08559	0.605329	48.9063
6.50505	1.08559	0.605329	48.882
6.60606	1.08559	0.605329	48.8209
6.70707	1.08559	0.605329	48.7305
6.80808	1.08559	0.605329	48.6169
6.90909	1.08559	0.605329	48.485
7.0101	1.08559	0.605329	48.3385
7.11111	1.08559	0.605329	48.1805
7.21212	1.08559	0.605329	48.0134
7.31313	1.08559	0.605329	47.839
7.41414	1.08559	0.605329	47.6589
7.51515	1.08559	0.605329	47.4743
7.61616	1.08559	0.605329	47.286
7.71717	1.08559	0.605329	47.0949
7.81818	1.08559	0.605329	46.9015
7.91919	1.08559	0.605329	46.7063
8.0202	1.08559	0.605329	46.5097
8.12121	1.08559	0.605329	46.312
8.22222	1.08559	0.605329	46.1134
8.32323	1.08559	0.605329	45.9141
8.42424	1.08559	0.605329	45.7142
8.52525	1.08559	0.605329	45.5139
8.62626	1.08559	0.605329	45.3132
8.72727	1.08559	0.605329	45.1123
8.82828	1.08559	0.605329	44.9111
8.92929	1.08559	0.605329	44.7097
9.0303	1.08559	0.605329	44.5082
9.13131	1.08559	0.605329	44.3066
9.23232	1.08559	0.605329	44.1049
9.33333	1.08559	0.605329	43.9032
9.43434	1.08559	0.605329	43.7014
9.53535	1.08559	0.605329	43.4995
9.63636	1.08559	0.605329	43.2976
9.73737	1.08559	0.605329	43.0957
9.83838	1.08559	0.605329	42.8938
9.93939	1.08559	0.605329	42.6918
10.0404	1.08559	0.605329	42.4899
10.1414	1.08559	0.605329	42.2879
10.2424	1.08559	0.605329	42.0859
10.3434	1.08559	0.605329	41.8839
10.4444	1.08559	0.605329	41.6819
10.5455	1.08559	0.605329	41.4799
10.6465	1.08559	0.605329	41.2779
10.7475	1.08559	0.605329	41.0758
10.8485	1.08559	0.605329	40.8738
10.9495	1.08559	0.605329	40.6718
11.0505	1.08559	0.605329	40.4697
11.1515	1.08559	0.605329	40.2677
11.2525	1.08559	0.605329	40.0657
11.3535	1.08559	0.605329	39.8636
11.4545	1.08559	0.605329	39.6615
11.5556	1.08559	0.605329	39.4595
11.6566	1.08559	0.605329	39.2574
11.7576	1.08559	0.605329	39.0553
11.8586	1.08559	0.605329	38.8531
11.9596	1.08559	0.605329	38.651
12.0606	1.08559	0.605329	38.4487
12.1616	1.08559	0.605329	38.2465
12.2626	1.08559	0.605329	38.0442
12.3636	1.08559	0.605329	37.8418
12.4646	1.08559	0.605329	37.6393
12.5657	1.08559	0.605329	37.4366
12.6667	1.08559	0.605329	37.2339
12.7677	1.08559	0.605329	37.0309
12.8687	1.08559	0.605329	36.8276
12.9697	1.08559	0.605329	36.6241
13.0707	1.08559	0.605329	36.4201
13.1717	1.08559	0.605329	36.2157
13.2727	1.08559	0.605329	36.0106
13.3737	1.08559	0.605329	35.8047
13.4747	1.08559	0.605329	35.5978
13.5758	1.08559	0.605329	35.3896
13.6768	1.08559	0.605329	35.1798
13.7778	1.08559	0.605329	34.9679
13.8788	1.08559	0.605329	34.7535
13.9798	1.08559	0.605329	34.5358
14.0808	1.08559	0.605329	34.314
14.1818	1.08559	0.605329	34.087
14.2828	1.08559	0.605329	33.8535
14.3838	1.08559	0.605329	33.6118
14.4848	1.08559	0.605329	33.3597
14.5859	1.08559	0.605329	33.0944
14.6869	1.08559	0.605329	32.8126
14.7879	1.08559	0.605329	32.5098
14.8889	1.08559	0.605329	32.1807
14.9899	1.08559	0.605329	31.8184
15.0909	1.08559	0.605329	31.414
15.1919	1.08559	0.605329	30.9567
15.2929	1.08559	0.605329	30.4325
15.3939	1.08559	0.605329	29.8239
15.4949	1.08559	0.605329	29.1089
15.596	1.08559	0.605329	28.2596
15.697	1.08559	0.605329	27.2407
15.798	1.08559	0.605329	26.008
15.899	1.08559	0.605329	24.5054
16	1.08559	0.605329	22.6621
6	1.09985	0.645499	48.3378
6.10101	1.09985	0.645499	48.5864
6.20202	1.09985	0.645499	48.7415
6.30303	1.09985	0.645499	48.8225
6.40404	1.09985	0.645499	48.8447
6.50505	1.09985	0.645499	48.8204
6.60606	1.09985	0.645499	48.7592
6.70707	1.09985	0.645499	48.6688
6.80808	1.09985	0.645499	48.5553
6.90909	1.09985	0.645499	48.4234
7.0101	1.09985	0.645499	48.2769
7.11111	1.09985	0.645499	48.1189
7.21212	1.09985	0.645499	47.9518
7.31313	1.09985	0.645499	47.7774
7.41414	1.09985	0.645499	47.5973
7.51515	1.09985	0.645499	47.4126
7.61616	1.09985	0.645499	47.2244
7.71717	1.09985	0.645499	47.0333
7.81818	1.09985	0.645499	46.8399
7.91919	1.09985	0.645499	46.6447
8.0202	1.09985	0.645499	46.4481
8.12121	1.09985	0.645499	46.2504
8.22222	1.09985	0.645499	46.0518
8.32323	1.09985	0.645499	45.8525
8.42424	1.09985	0.645499	45.6526
8.52525	1.09985	0.645499	45.4523
8.62626	1.09985	0.645499	45.2516
8.72727	1.09985	0.645499	45.0506
8.82828	1.09985	0.645499	44.8495
8.92929	1.09985	0.645499	44.6481
9.0303	1.09985	0.645499	44.4466
9.13131	1.09985	0.645499	44.245
9.23232	1.09985	0.645499	44.0433
9.33333	1.09985	0.645499	43.8416
9.43434	1.09985	0.645499	43.6398
9.53535	1.09985	0.645499	43.4379
9.63636	1.09985	0.645499	43.236
9.73737	1.09985	0.645499	43.0341
9.83838	1.09985	0.645499	42.8322
9.93939	1.09985	0.645499	42.6302
10.0404	1.09985	0.645499	42.4282
10.1414	1.09985	0.645499	42.2263
10.2424	1.09985	0.645499	42.0243
10.3434	1.09985	0.645499	41.8223
10.4444	1.09985	0.645499	41.6203
10.5455	1.09985	0.645499	41.4183
10.6465	1.09985	0.645499	41.2162
10.7475	1.09985	0.645499	41.0142
10.8485	1.09985	0.645499	40.8122
10.9495	1.09985	0.645499	40.6102
11.0505	1.09985	0.645499	40.4081
11.1515	1.09985	0.645499	40.2061
11.2525	1.09985	0.645499	40.0041
11.3535	1.09985	0.645499	39.802
11.4545	1.09985	0.645499	39.5999
11.5556	1.09985	0.645499	39.3979
11.6566	1.09985	0.645499	39.1958
11.7576	1.09985	0.645499	38.9937
11.8586	1.09985	0.645499	38.7915
11.9596	1.09985	0.645499	38.5893
12.0606	1.09985	0.645499	38.3871
12.1616	1.09985	0.645499	38.1849
12.2626	1.09985	0.645499	37.9826
12.3636	1.09985	0.645499	37.7802
12.4646	1.09985	0.645499	37.5777
12.5657	1.09985	0.645499	37.375
12.6667	1.09985	0.645499	37.1723
12.7677	1.09985	0.645499	36.9693
12.8687	1.09985	0.645499	36.766
12.9697	1.09985	0.645499	36.5625
13.0707	1.09985	0.645499	36.3585
13.1717	1.09985	0.645499	36.1541
13.2727	1.09985	0.645499	35.949
13.3737	1.09985	0.645499	35.7431
13.4747	1.09985	0.645499	35.5362
13.5758	1.09985	0.645499	35.328
13.6768	1.09985	0.645499	35.1182
13.7778	1.09985	0.645499	34.9063
13.8788	1.09985	0.645499	34.6919
13.9798	1.09985	0.645499	34.4742
14.0808	1.09985	0.645499	34.2524
14.1818	1.09985	0.645499	34.0254
14.2828	1.09985	0.645499	33.7919
14.3838	1.09985	0.645499	33.5502
14.4848	1.09985	0.645499	33.298
14.5859	1.09985	0.645499	33.0328
14.6869	1.09985	0.645499	32.751
14.7879	1.09985	0.645499	32.4482
14.8889	1.09985	0.645499	32.1191
14.9899	1.09985	0.645499	31.7568
15.0909	1.09985	0.645499	31.3524
15.1919	1.09985	0.645499	30.8951
15.2929	1.09985	0.645499	30.3709
15.3939	1.09985	0.645499	29.7623
15.4949	1.09985	0.645499	29.0473
15.596	1.09985	0.645499	28.198
15.697	1.09985	0.645499	27.1791
15.798	1.09985	0.645499	25.9464
15.899	1.09985	0.645499	24.4437
16	1.09985	0.645499	22.6005
6	1.11412	0.688275	48.2903
6.10101	1.11412	0.688275	48.5389
6.20202	1.11412	0.688275	48.694
6.30303	1.11412	0.688275	48.775
6.40404	1.11412	0.688275	48.7972
6.50505	1.11412	0.688275	48.7729
6.60606	1.11412	0.688275	48.7118
6.70707	1.11412	0.688275	48.6214
6.80808	1.11412	0.688275	48.5078
6.90909	1.11412	0.688275	48.3759
7.0101	1.11412	0.688275	48.2294
7.11111	1.11412	0.688275	48.0714
7.21212	1.11412	0.688275	47.9043
7.31313	1.11412	0.688275	47.7299
7.41414	1.11412	0.688275	47.5498
7.51515	1.11412	0.688275	47.3652
7.61616	1.11412	0.688275	47.1769
7.71717	1.11412	0.688275	46.9858
7.81818	1.11412	0.688275	46.7924
7.91919	1.11412	0.688275	46.5972
8.0202	1.11412	0.688275	46.4007
8.12121	1.11412	0.688275	46.2029
8.22222	1.11412	0.688275	46.0043
8.32323	1.11412	0.688275	45.805
8.42424	1.11412	0.688275	45.6051
8.52525	1.11412	0.688275	45.4048
8.62626	1.11412	0.688275	45.2041
8.72727	1.11412	0.688275	45.0032
8.82828	1.11412	0.688275	44.802
8.92929	1.11412	0.688275	44.6006
9.0303	1.11412	0.688275	44.3992
9.13131	1.11412	0.688275	44.1976
9.23232	1.11412	0.688275	43.9959
9.33333	1.11412	0.688275	43.7941
9.43434	1.11412	0.688275	43.5923
9.53535	1.11412	0.688275	43.3904
9.63636	1.11412	0.688275	43.1886
9.73737	1.11412	0.688275	42.9866
9.83838	1.11412	0.688275	42.7847
9.93939	1.11412	0.688275	42.5827
10.0404	1.11412	0.688275	42.3808
10.1414	1.11412	0.688275	42.1788
10.2424	1.11412	0.688275	41.9768
10.3434	1.11412	0.688275	41.7748
10.4444	1.11412	0.688275	41.5728
10.5455	1.11412	0.688275	41.3708
10.6465	1.11412	0.688275	41.1688
10.7475	1.11412	0.688275	40.9668
10.8485	1.11412	0.688275	40.7647
10.9495	1.11412	0.688275	40.5627
11.0505	1.11412	0.688275	40.3607
11.1515	1.11412	0.688275	40.1586
11.2525	1.11412	0.688275	39.9566
11.3535	1.11412	0.688275	39.7545
11.4545	1.11412	0.688275	39.5525
11.5556	1.11412	0.688275	39.3504
11.6566	1.11412	0.688275	39.1483
11.7576	1.11412	0.688275	38.9462
11.8586	1.11412	0.688275	38.744
11.9596	1.11412	0.688275	38.5419
12.0606	1.11412	0.688275	38.3397
12.1616	1.11412	0.688275	38.1374
12.2626	1.11412	0.688275	37.9351
12.3636	1.11412	0.688275	37.7327
12.4646	1.11412	0.688275	37.5302
12.5657	1.11412	0.688275	37.3276
12.6667	1.11412	0.688275	37.1248
12.7677	1.11412	0.688275	36.9218
12.8687	1.11412	0.688275	36.7186
12.9697	1.11412	0.688275	36.515
13.0707	1.11412	0.688275	36.3111
13.1717	1.11412	0.688275	36.1066
13.2727	1.11412	0.688275	35.9015
13.3737	1.11412	0.688275	35.6956
13.4747	1.11412	0.688275	35.4887
13.5758	1.11412	0.688275	35.2805
13.6768	1.11412	0.688275	35.0707
13.7778	1.11412	0.688275	34.8588
13.8788	1.11412	0.688275	34.6444
13.9798	1.11412	0.688275	34.4267
14.0808	1.11412	0.688275	34.2049
14.1818	1.11412	0.688275	33.9779
14.2828	1.11412	0.688275	33.7444
14.3838	1.11412	0.688275	33.5027
14.4848	1.11412	0.688275	33.2506
14.5859	1.11412	0.688275	32.9853
14.6869	1.11412	0.688275	32.7035
14.7879	1.11412	0.688275	32.4008
14.8889	1.11412	0.688275	32.0717
14.9899	1.11412	0.688275	31.7093
15.0909	1.11412	0.688275	31.3049
15.1919	1.11412	0.688275	30.8476
15.2929	1.11412	0.688275	30.3234
15.3939	1.11412	0.688275	29.7149
15.4949	1.11412	0.688275	28.9998
15.596	1.11412	0.688275	28.1505
15.697	1.11412	0.688275	27.1317
15.798	1.11412	0.688275	25.8989
15.899	1.11412	0.688275	24.3963
16	1.11412	0.688275	22.5531
6	1.12838	0.720787	48.2324
6.10101	1.12838	0.720787	48.481
6.20202	1.12838	0.720787	48.6361
6.30303	1.12838	0.720787	48.7171
6.40404	1.12838	0.720787	48.7393
6.50505	1.12838	0.720787	48.715
6.60606	1.12838	0.720787	48.6539
6.70707	1.12838	0.720787	48.5635
6.80808	1.12838	0.720787	48.4499
6.90909	1.12838	0.720787	48.318
7.0101	1.12838	0.720787	48.1715
7.11111	1.12838	0.720787	48.0135
7.21212	1.12838	0.720787	47.8464
7.31313	1.12838	0.720787	47.672
7.41414	1.12838	0.720787	47.4919
7.51515	1.12838	0.720787	47.3073
7.61616	1.12838	0.720787	47.119
7.71717	1.12838	0.720787	46.9279
7.81818	1.12838	0.720787	46.7345
7.91919	1.12838	0.720787	46.5393
8.0202	1.12838	0.720787	46.3427
8.12121	1.12838	0.720787	46.145
8.22222	1.12838	0.720787	45.9464
8.32323	1.12838	0.720787	45.7471
8.42424	1.12838	0.720787	45.5472
8.52525	1.12838	0.720787	45.3469
8.62626	1.12838	0.720787	45.1462
8.72727	1.12838	0.720787	44.9453
8.82828	1.12838	0.720787	44.7441
8.92929	1.12838	0.720787	44.5427
9.0303	1.12838	0.720787	44.3412
9.13131	1.12838	0.720787	44.1396
9.23232	1.12838	0.720787	43.938
9.33333	1.12838	0.720787	43.7362
9.43434	1.12838	0.720787	43.5344
9.53535	1.12838	0.720787	43.3325
9.63636	1.12838	0.720787	43.1306
9.73737	1.12838	0.720787	42.9287
9.83838	1.12838	0.720787	42.7268
9.93939	1.12838	0.720787	42.5248
10.0404	1.12838	0.720787	42.3229
10.1414	1.12838	0.720787	42.1209
10.2424	1.12838	0.720787	41.9189
10.3434	1.12838	0.720787	41.7169
10.4444	1.12838	0.720787	41.5149
10.5455	1.12838	0.720787	41.3129
10.6465	1.12838	0.720787	41.1109
10.7475	1.12838	0.720787	40.9088
10.8485	1.12838	0.720787	40.7068
10.9495	1.12838	0.720787	40.5048
11.0505	1.12838	0.720787	40.3028
11.1515	1.12838	0.720787	40.1007
11.2525	1.12838	0.720787	39.8987
11.3535	1.12838	0.720787	39.6966
11.4545	1.12838	0.720787	39.4946
11.5556	1.12838	0.720787	39.2925
11.6566	1.12838	0.720787	39.0904
11.7576	1.12838	0.720787	38.8883
11.8586	1.12838	0.720787	38.6861
11.9596	1.12838	0.720787	38.484
12.0606	1.12838	0.720787	38.2818
12.1616	1.12838	0.720787	38.0795
12.2626	1.12838	0.720787	37.8772
12.3636	1.12838	0.720787	37.6748
12.4646	1.12838	0.720787	37.4723
12.5657	1.12838	0.720787	37.2697
12.6667	1.12838	0.720787	37.0669
12.7677	1.12838	0.720787	36.8639
12.8687	1.12838	0.720787	36.6607
12.9697	1.12838	0.720787	36.4571
13.0707	1.12838	0.720787	36.2532
13.1717	1.12838	0.720787	36.0487
13.2727	1.12838	0.720787	35.8436
13.3737	1.12838	0.720787	35.6377
13.4747	1.12838	0.720787	35.4308
13.5758	1.12838	0.720787	35.2226
13.6768	1.12838	0.720787	35.0128
13.7778	1.12838	0.720787	34.8009
13.8788	1.12838	0.720787	34.5865
13.9798	1.12838	0.720787	34.3688
14.0808	1.12838	0.720787	34.147
14.1818	1.12838	0.720787	33.92
14.2828	1.12838	0.720787	33.6865
14.3838	1.12838	0.720787	33.4448
14.4848	1.12838	0.720787	33.1927
14.5859	1.12838	0.720787	32.9274
14.6869	1.12838	0.720787	32.6456
14.7879	1.12838	0.720787	32.3429
14.8889	1.12838	0.720787	32.0138
14.9899	1.12838	0.720787	31.6514
15.0909	1.12838	0.720787	31.247
15.1919	1.12838	0.720787	30.7897
15.2929	1.12838	0.720787	30.2655
15.3939	1.12838	0.720787	29.6569
15.4949	1.12838	0.720787	28.9419
15.596	1.12838	0.720787	28.0926
15.697	1.12838	0.720787	27.0737
15.798	1.12838	0.720787	25.841
15.899	1.12838	0.720787	24.3384
16	1.12838	0.720787	22.4952
6	1.14265	0.758568	48.1887
6.10101	1.14265	0.758568	48.4373
6.20202	1.14265	0.758568	48.5924
6.30303	1.14265	0.758568	48.6734
6.40404	1.14265	0.758568	48.6957
6.50505	1.14265	0.758568	48.6714
6.60606	1.14265	0.758568	48.6102
6.70707	1.14265	0.758568	48.5198
6.80808	1.14265	0.758568	48.4062
6.90909	1.14265	0.758568	48.2743
7.0101	1.14265	0.758568	48.1279
7.11111	1.14265	0.758568	47.9699
7.21212	1.14265	0.758568	47.8027
7.31313	1.14265	0.758568	47.6284
7.41414	1.14265	0.758568	47.4483
7.51515	1.14265	0.758568	47.2636
7.61616	1.14265	0.758568	47.0753
7.71717	1.14265	0.758568	46.8842
7.81818	1.14265	0.758568	46.6909
7.91919	1.14265	0.758568	46.4957
8.0202	1.14265	0.758568	46.2991
8.12121	1.14265	0.758568	46.1014
8.22222	1.14265	0.758568	45.9028
8.32323	1.14265	0.758568	45.7034
8.42424	1.14265	0.758568	45.5036
8.52525	1.14265	0.758568	45.3032
8.62626	1.14265	0.758568	45.1026
8.72727	1.14265	0.758568	44.9016
8.82828	1.14265	0.758568	44.7004
8.92929	1.14265	0.758568	44.4991
9.0303	1.14265	0.758568	44.2976
9.13131	1.14265	0.758568	44.096
9.23232	1.14265	0.758568	43.8943
9.33333	1.14265	0.758568	43.6925
9.43434	1.14265	0.758568	43.4907
9.53535	1.14265	0.758568	43.2889
9.63636	1.14265	0.758568	43.087
9.73737	1.14265	0.758568	42.8851
9.83838	1.14265	0.758568	42.6831
9.93939	1.14265	0.758568	42.4812
10.0404	1.14265	0.758568	42.2792
10.1414	1.14265	0.758568	42.0772
10.2424	1.14265	0.758568	41.8752
10.3434	1.14265	0.758568	41.6732
10.4444	1.14265	0.758568	41.4712
10.5455	1.14265	0.758568	41.2692
10.6465	1.14265	0.758568	41.0672
10.7475	1.14265	0.758568	40.8652
10.8485	1.14265	0.758568	40.6632
10.9495	1.14265	0.758568	40.4611
11.0505	1.14265	0.758568	40.2591
11.1515	1.14265	0.758568	40.0571
11.2525	1.14265	0.758568	39.855
11.3535	1.14265	0.758568	39.653
11.4545	1.14265	0.758568	39.4509
11.5556	1.14265	0.758568	39.2488
11.6566	1.14265	0.758568	39.0467
11.7576	1.14265	0.758568	38.8446
11.8586	1.14265	0.758568	38.6425
11.9596	1.14265	0.758568	38.4403
12.0606	1.14265	0.758568	38.2381
12.1616	1.14265	0.758568	38.0358
12.2626	1.14265	0.758568	37.8335
12.3636	1.14265	0.758568	37.6311
12.4646	1.14265	0.758568	37.4286
12.5657	1.14265	0.758568	37.226
12.6667	1.14265	0.758568	37.0232
12.7677	1.14265	0.758568	36.8202
12.8687	1.14265	0.758568	36.617
12.9697	1.14265	0.758568	36.4135
13.0707	1.14265	0.758568	36.2095
13.1717	1.14265	0.758568	36.005
13.2727	1.14265	0.758568	35.7999
13.3737	1.14265	0.758568	35.594
13.4747	1.14265	0.758568	35.3871
13.5758	1.14265	0.758568	35.1789
13.6768	1.14265	0.758568	34.9691
13.7778	1.14265	0.758568	34.7573
13.8788	1.14265	0.758568	34.5428
13.9798	1.14265	0.758568	34.3251
14.0808	1.14265	0.758568	34.1033
14.1818	1.14265	0.758568	33.8764
14.2828	1.14265	0.758568	33.6429
14.3838	1.14265	0.758568	33.4011
14.4848	1.14265	0.758568	33.149
14.5859	1.14265	0.758568	32.8837
14.6869	1.14265	0.758568	32.6019
14.7879	1.14265	0.758568	32.2992
14.8889	1.14265	0.758568	31.9701
14.9899	1.14265	0.758568	31.6077
15.0909	1.14265	0.758568	31.2034
15.1919	1.14265	0.758568	30.746
15.2929	1.14265	0.758568	30.2218
15.3939	1.14265	0.758568	29.6133
15.4949	1.14265	0.758568	28.8983
15.596	1.14265	0.758568	28.0489
15.697	1.14265	0.758568	27.0301
15.798	1.14265	0.758568	25.7974
15.899	1.14265	0.758568	24.2947
16	1.14265	0.758568	22.4515
6	1.15691	0.78801	48.136
6.10101	1.15691	0.78801	48.3846
6.20202	1.15691	0.78801	48.5397
6.30303	1.15691	0.78801	48.6207
6.40404	1.15691	0.78801	48.6429
6.50505	1.15691	0.78801	48.6186
6.60606	1.15691	0.78801	48.5575
6.70707	1.15691	0.78801	48.4671
6.80808	1.15691	0.78801	48.3535
6.90909	1.15691	0.78801	48.2216
7.0101	1.15691	0.78801	48.0751
7.11111	1.15691	0.78801	47.9171
7.21212	1.15691	0.78801	47.75
7.31313	1.15691	0.78801	47.5756
7.41414	1.15691	0.78801	47.3955
7.51515	1.15691	0.78801	47.2109
7.61616	1.15691	0.78801	47.0226
7.71717	1.15691	0.78801	46.8315
7.81818	1.15691	0.78801	46.6381
7.91919	1.15691	0.78801	46.443
8.0202	1.15691	0.78801	46.2464
8.12121	1.15691	0.78801	46.0486
8.22222	1.15691	0.78801	45.85
8.32323	1.15691	0.78801	45.6507
8.42424	1.15691	0.78801	45.4508
8.52525	1.15691	0.78801	45.2505
8.62626	1.15691	0.78801	45.0498
8.72727	1.15691	0.78801	44.8489
8.82828	1.15691	0.78801	44.6477
8.92929	1.15691	0.78801	44.4463
9.0303	1.15691	0.78801	44.2449
9.13131	1.15691	0.78801	44.0433
9.23232	1.15691	0.78801	43.8416
9.33333	1.15691	0.78801	43.6398
9.43434	1.15691	0.78801	43.438
9.53535	1.15691	0.78801	43.2361
9.63636	1.15691	0.78801	43.0343
9.73737	1.15691	0.78801	42.8323
9.83838	1.15691	0.78801	42.6304
9.93939	1.15691	0.78801	42.4284
10.0404	1.15691	0.78801	42.2265
10.1414	1.15691	0.78801	42.0245
10.2424	1.15691	0.78801	41.8225
10.3434	1.15691	0.78801	41.6205
10.4444	1.15691	0.78801	41.4185
10.5455	1.15691	0.78801	41.2165
10.6465	1.15691	0.78801	41.0145
10.7475	1.15691	0.78801	40.8125
10.8485	1.15691	0.78801	40.6104
10.9495	1.15691	0.78801	40.4084
11.0505	1.15691	0.78801	40.2064
11.1515	1.15691	0.78801	40.0043
11.2525	1.15691	0.78801	39.8023
11.3535	1.15691	0.78801	39.6002
11.4545	1.15691	0.78801	39.3982
11.5556	1.15691	0.78801	39.1961
11.6566	1.15691	0.78801	38.994
11.7576	1.15691	0.78801	38.7919
11.8586	1.15691	0.78801	38.5897
11.9596	1.15691	0.78801	38.3876
12.0606	1.15691	0.78801	38.1854
12.1616	1.15691	0.78801	37.9831
12.2626	1.15691	0.78801	37.7808
12.3636	1.15691	0.78801	37.5784
12.4646	1.15691	0.78801	37.3759
12.5657	1.15691	0.78801	37.1733
12.6667	1.15691	0.78801	36.9705
12.7677	1.15691	0.78801	36.7675
12.8687	1.15691	0.78801	36.5643
12.9697	1.15691	0.78801	36.3607
13.0707	1.15691	0.78801	36.1568
13.1717	1.15691	0.78801	35.9523
13.2727	1.15691	0.78801	35.7472
13.3737	1.15691	0.78801	35.5413
13.4747	1.15691	0.78801	35.3344
13.5758	1.15691	0.78801	35.1262
13.6768	1.15691	0.78801	34.9164
13.7778	1.15691	0.78801	34.7045
13.8788	1.15691	0.78801	34.4901
13.9798	1.15691	0.78801	34.2724
14.0808	1.15691	0.78801	34.0506
14.1818	1.15691	0.78801	33.8236
14.2828	1.15691	0.78801	33.5902
14.3838	1.15691	0.78801	33.3484
14.4848	1.15691	0.78801	33.0963
14.5859	1.15691	0.78801	32.831
14.6869	1.15691	0.78801	32.5492
14.7879	1.15691	0.78801	32.2465
14.8889	1.15691	0.78801	31.9174
14.9899	1.15691	0.78801	31.555
15.0909	1.15691	0.78801	31.1506
15.1919	1.15691	0.78801	30.6933
15.2929	1.15691	0.78801	30.1691
15.3939	1.15691	0.78801	29.5606
15.4949	1.15691	0.78801	28.8455
15.596	1.15691	0.78801	27.9962
15.697	1.15691	0.78801	26.9774
15.798	1.15691	0.78801	25.7446
15.899	1.15691	0.78801	24.242
16	1.15691	0.78801	22.3988
6	1.17118	0.819365	48.0899
6.10101	1.17118	0.819365	48.3384
6.20202	1.17118	0.819365	48.4935
6.30303	1.17118	0.819365	48.5745
6.40404	1.17118	0.819365	48.5968
6.50505	1.17118	0.819365	48.5725
6.60606	1.17118	0.819365	48.5113
6.70707	1.17118	0.819365	48.4209
6.80808	1.17118	0.819365	48.3074
6.90909	1.17118	0.819365	48.1754
7.0101	1.17118	0.819365	48.029
7.11111	1.17118	0.819365	47.871
7.21212	1.17118	0.819365	47.7038
7.31313	1.17118	0.819365	47.5295
7.41414	1.17118	0.819365	47.3494
7.51515	1.17118	0.819365	47.1647
7.61616	1.17118	0.819365	46.9764
7.71717	1.17118	0.819365	46.7853
7.81818	1.17118	0.819365	46.592
7.91919	1.17118	0.819365	46.3968
8.0202	1.17118	0.819365	46.2002
8.12121	1.17118	0.819365	46.0025
8.22222	1.17118	0.819365	45.8039
8.32323	1.17118	0.819365	45.6045
8.42424	1.17118	0.819365	45.4047
8.52525	1.17118	0.819365	45.2043
8.62626	1.17118	0.819365	45.0037
8.72727	1.17118	0.819365	44.8027
8.82828	1.17118	0.819365	44.6015
8.92929	1.17118	0.819365	44.4002
9.0303	1.17118	0.819365	44.1987
9.13131	1.17118	0.819365	43.9971
9.23232	1.17118	0.819365	43.7954
9.33333	1.17118	0.819365	43.5936
9.43434	1.17118	0.819365	43.3918
9.53535	1.17118	0.819365	43.19
9.63636	1.17118	0.819365	42.9881
9.73737	1.17118	0.819365	42.7862
9.83838	1.17118	0.819365	42.5842
9.93939	1.17118	0.819365	42.3823
10.0404	1.17118	0.819365	42.1803
10.1414	1.17118	0.819365	41.9783
10.2424	1.17118	0.819365	41.7763
10.3434	1.17118	0.819365	41.5743
10.4444	1.17118	0.819365	41.3723
10.5455	1.17118	0.819365	41.1703
10.6465	1.17118	0.819365	40.9683
10.7475	1.17118	0.819365	40.7663
10.8485	1.17118	0.819365	40.5643
10.9495	1.17118	0.819365	40.3622
11.0505	1.17118	0.819365	40.1602
11.1515	1.17118	0.819365	39.9582
11.2525	1.17118	0.819365	39.7561
11.3535	1.17118	0.819365	39.5541
11.4545	1.17118	0.819365	39.352
11.5556	1.17118	0.819365	39.1499
11.6566	1.17118	0.819365	38.9478
11.7576	1.17118	0.819365	38.7457
11.8586	1.17118	0.819365	38.5436
11.9596	1.17118	0.819365	38.3414
12.0606	1.17118	0.819365	38.1392
12.1616	1.17118	0.819365	37.9369
12.2626	1.17118	0.819365	37.7346
12.3636	1.17118	0.819365	37.5322
12.4646	1.17118	0.819365	37.3297
12.5657	1.17118	0.819365	37.1271
12.6667	1.17118	0.819365	36.9243
12.7677	1.17118	0.819365	36.7213
12.8687	1.17118	0.819365	36.5181
12.9697	1.17118	0.819365	36.3146
13.0707	1.17118	0.819365	36.1106
13.1717	1.17118	0.819365	35.9061
13.2727	1.17118	0.819365	35.7011
13.3737	1.17118	0.819365	35.4951
13.4747	1.17118	0.819365	35.2882
13.5758	1.17118	0.819365	35.08
13.6768	1.17118	0.819365	34.8702
13.7778	1.17118	0.819365	34.6584
13.8788	1.17118	0.819365	34.4439
13.9798	1.17118	0.819365	34.2262
14.0808	1.17118	0.819365	34.0044
14.1818	1.17118	0.819365	33.7775
14.2828	1.17118	0.819365	33.544
14.3838	1.17118	0.819365	33.3022
14.4848	1.17118	0.819365	33.0501
14.5859	1.17118	0.819365	32.7848
14.6869	1.17118	0.819365	32.503
14.7879	1.17118	0.819365	32.2003
14.8889	1.17118	0.819365	31.8712
14.9899	1.17118	0.819365	31.5088
15.0909	1.17118	0.819365	31.1045
15.1919	1.17118	0.819365	30.6471
15.2929	1.17118	0.819365	30.123
15.3939	1.17118	0.819365	29.5144
15.4949	1.17118	0.819365	28.7994
15.596	1.17118	0.819365	27.95
15.697	1.17118	0.819365	26.9312
15.798	1.17118	0.819365	25.6985
15.899	1.17118	0.819365	24.1958
16	1.17118	0.819365	22.3526
6	1.18544	0.853107	48.05
6.10101	1.18544	0.853107	48.2986
6.20202	1.18544	0.853107	48.4537
6.30303	1.18544	0.853107	48.5346
6.40404	1.18544	0.853107	48.5569
6.50505	1.18544	0.853107	48.5326
6.60606	1.18544	0.853107	48.4714
6.70707	1.18544	0.853107	48.381
6.80808	1.18544	0.853107	48.2675
6.90909	1.18544	0.853107	48.1356
7.0101	1.18544	0.853107	47.9891
7.11111	1.18544	0.853107	47.8311
7.21212	1.18544	0.853107	47.664
7.31313	1.18544	0.853107	47.4896
7.41414	1.18544	0.853107	47.3095
7.51515	1.18544	0.853107	47.1248
7.61616	1.18544	0.853107	46.9366
7.71717	1.18544	0.853107	46.7455
7.81818	1.18544	0.853107	46.5521
7.91919	1.18544	0.853107	46.3569
8.0202	1.18544	0.853107	46.1603
8.12121	1.18544	0.853107	45.9626
8.22222	1.18544	0.853107	45.764
8.32323	1.18544	0.853107	45.5647
8.42424	1.18544	0.853107	45.3648
8.52525	1.18544	0.853107	45.1645
8.62626	1.18544	0.853107	44.9638
8.72727	1.18544	0.853107	44.7628
8.82828	1.18544	0.853107	44.5617
8.92929	1.18544	0.853107	44.3603
9.0303	1.18544	0.853107	44.1588
9.13131	1.18544	0.853107	43.9572
9.23232	1.18544	0.853107	43.7555
9.33333	1.18544	0.853107	43.5538
9.43434	1.18544	0.853107	43.352
9.53535	1.18544	0.853107	43.1501
9.63636	1.18544	0.853107	42.9482
9.73737	1.18544	0.853107	42.7463
9.83838	1.18544	0.853107	42.5444
9.93939	1.18544	0.853107	42.3424
10.0404	1.18544	0.853107	42.1404
10.1414	1.18544	0.853107	41.9385
10.2424	1.18544	0.853107	41.7365
10.3434	1.18544	0.853107	41.5345
10.4444	1.18544	0.853107	41.3325
10.5455	1.18544	0.853107	41.1305
10.6465	1.18544	0.853107	40.9284
10.7475	1.18544	0.853107	40.7264
10.8485	1.18544	0.853107	40.5244
10.9495	1.18544	0.853107	40.3224
11.0505	1.18544	0.853107	40.1203
11.1515	1.18544	0.853107	39.9183
11.2525	1.18544	0.853107	39.7162
11.3535	1.18544	0.853107	39.5142
11.4545	1.18544	0.853107	39.3121
11.5556	1.18544	0.853107	39.11
11.6566	1.18544	0.853107	38.908
11.7576	1.18544	0.853107	38.7058
11.8586	1.18544	0.853107	38.5037
11.9596	1.18544	0.853107	38.3015
12.0606	1.18544	0.853107	38.0993
12.1616	1.18544	0.853107	37.8971
12.2626	1.18544	0.853107	37.6947
12.3636	1.18544	0.853107	37.4923
12.4646	1.18544	0.853107	37.2899
12.5657	1.18544	0.853107	37.0872
12.6667	1.18544	0.853107	36.8844
12.7677	1.18544	0.853107	36.6815
12.8687	1.18544	0.853107	36.4782
12.9697	1.18544	0.853107	36.2747
13.0707	1.18544	0.853107	36.0707
13.1717	1.18544	0.853107	35.8663
13.2727	1.18544	0.853107	35.6612
13.3737	1.18544	0.853107	35.4553
13.4747	1.18544	0.853107	35.2484
13.5758	1.18544	0.853107	35.0402
13.6768	1.18544	0.853107	34.8303
13.7778	1.18544	0.853107	34.6185
13.8788	1.18544	0.853107	34.404
13.9798	1.18544	0.853107	34.1864
14.0808	1.18544	0.853107	33.9646
14.1818	1.18544	0.853107	33.7376
14.2828	1.18544	0.853107	33.5041
14.3838	1.18544	0.853107	33.2624
14.4848	1.18544	0.853107	33.0102
14.5859	1.18544	0.853107	32.745
14.6869	1.18544	0.853107	32.4631
14.7879	1.18544	0.853107	32.1604
14.8889	1.18544	0.853107	31.8313
14.9899	1.18544	0.853107	31.469
15.0909	1.18544	0.853107	31.0646
15.1919	1.18544	0.853107	30.6073
15.2929	1.18544	0.853107	30.0831
15.3939	1.18544	0.853107	29.4745
15.4949	1.18544	0.853107	28.7595
15.596	1.18544	0.853107	27.9102
15.697	1.18544	0.853107	26.8913
15.798	1.18544	0.853107	25.6586
15.899	1.18544	0.853107	24.1559
16	1.18544	0.853107	22.3127
6	1.19971	0.880071	48.0023
6.10101	1.19971	0.880071	48.2509
6.20202	1.19971	0.880071	48.406
6.30303	1.19971	0.880071	48.487
6.40404	1.19971	0.880071	48.5092
6.50505	1.19971	0.880071	48.4849
6.60606	1.19971	0.880071	48.4238
6.70707	1.19971	0.880071	48.3334
6.80808	1.19971	0.880071	48.2198
6.90909	1.19971	0.880071	48.0879
7.0101	1.19971	0.880071	47.9414
7.11111	1.19971	0.880071	47.7834
7.21212	1.19971	0.880071	47.6163
7.31313	1.19971	0.880071	47.4419
7.41414	1.19971	0.880071	47.2618
7.51515	1.19971	0.880071	47.0771
7.61616	1.19971	0.880071	46.8889
7.71717	1.19971	0.880071	46.6978
7.81818	1.19971	0.880071	46.5044
7.91919	1.19971	0.880071	46.3092
8.0202	1.19971	0.880071	46.1126
8.12121	1.19971	0.880071	45.9149
8.22222	1.19971	0.880071	45.7163
8.32323	1.19971	0.880071	45.517
8.42424	1.19971	0.880071	45.3171
8.52525	1.19971	0.880071	45.1168
8.62626	1.19971	0.880071	44.9161
8.72727	1.19971	0.880071	44.7151
8.82828	1.19971	0.880071	44.514
8.92929	1.19971	0.880071	44.3126
9.0303	1.19971	0.880071	44.1111
9.13131	1.19971	0.880071	43.9095
9.23232	1.19971	0.880071	43.7078
9.33333	1.19971	0.880071	43.5061
9.43434	1.19971	0.880071	43.3043
9.53535	1.19971	0.880071	43.1024
9.63636	1.19971	0.880071	42.9005
9.73737	1.19971	0.880071	42.6986
9.83838	1.19971	0.880071	42.4967
9.93939	1.19971	0.880071	42.2947
10.0404	1.19971	0.880071	42.0927
10.1414	1.19971	0.880071	41.8908
10.2424	1.19971	0.880071	41.6888
10.3434	1.19971	0.880071	41.4868
10.4444	1.19971	0.880071	41.2848
10.5455	1.19971	0.880071	41.0828
10.6465	1.19971	0.880071	40.8808
10.7475	1.19971	0.880071	40.6787
10.8485	1.19971	0.880071	40.4767
10.9495	1.19971	0.880071	40.2747
11.0505	1.19971	0.880071	40.0726
11.1515	1.19971	0.880071	39.8706
11.2525	1.19971	0.880071	39.6686
11.3535	1.19971	0.880071	39.4665
11.4545	1.19971	0.880071	39.2644
11.5556	1.19971	0.880071	39.0624
11.6566	1.19971	0.880071	38.8603
11.7576	1.19971	0.880071	38.6582
11.8586	1.19971	0.880071	38.456
11.9596	1.19971	0.880071	38.2538
12.0606	1.19971	0.880071	38.0516
12.1616	1.19971	0.880071	37.8494
12.2626	1.19971	0.880071	37.6471
12.3636	1.19971	0.880071	37.4447
12.4646	1.19971	0.880071	37.2422
12.5657	1.19971	0.880071	37.0395
12.6667	1.19971	0.880071	36.8368
12.7677	1.19971	0.880071	36.6338
12.8687	1.19971	0.880071	36.4305
12.9697	1.19971	0.880071	36.227
13.0707	1.19971	0.880071	36.023
13.1717	1.19971	0.880071	35.8186
13.2727	1.19971	0.880071	35.6135
13.3737	1.19971	0.880071	35.4076
13.4747	1.19971	0.880071	35.2007
13.5758	1.19971	0.880071	34.9925
13.6768	1.19971	0.880071	34.7827
13.7778	1.19971	0.880071	34.5708
13.8788	1.19971	0.880071	34.3564
13.9798	1.19971	0.880071	34.1387
14.0808	1.19971	0.880071	33.9169
14.1818	1.19971	0.880071	33.6899
14.2828	1.19971	0.880071	33.4564
14.3838	1.19971	0.880071	33.2147
14.4848	1.19971	0.880071	32.9625
14.5859	1.19971	0.880071	32.6973
14.6869	1.19971	0.880071	32.4155
14.7879	1.19971	0.880071	32.1127
14.8889	1.19971	0.880071	31.7836
14.9899	1.19971	0.880071	31.4213
15.0909	1.19971	0.880071	31.0169
15.1919	1.19971	0.880071	30.5596
15.2929	1.19971	0.880071	30.0354
15.3939	1.19971	0.880071	29.4268
15.4949	1.19971	0.880071	28.7118
15.596	1.19971	0.880071	27.8625
15.697	1.19971	0.880071	26.8436
15.798	1.19971	0.880071	25.6109
15.899	1.19971	0.880071	24.1083
16	1.19971	0.880071	22.265
6	1.21397	0.910139	47.961
6.10101	1.21397	0.910139	48.2096
6.20202	1.21397	0.910139	48.3647
6.30303	1.21397	0.910139	48.4457
6.40404	1.21397	0.910139	48.4679
6.50505	1.21397	0.910139	48.4437
6.60606	1.21397	0.910139	48.3825
6.70707	1.21397	0.910139	48.2921
6.80808	1.21397	0.910139	48.1785
6.90909	1.21397	0.910139	48.0466
7.0101	1.21397	0.910139	47.9001
7.11111	1.21397	0.910139	47.7421
7.21212	1.21397	0.910139	47.575
7.31313	1.21397	0.910139	47.4006
7.41414	1.21397	0.910139	47.2205
7.51515	1.21397	0.910139	47.0359
7.61616	1.21397	0.910139	46.8476
7.71717	1.21397	0.910139	46.6565
7.81818	1.21397	0.910139	46.4631
7.91919	1.21397	0.910139	46.268
8.0202	1.21397	0.910139	46.0714
8.12121	1.21397	0.910139	45.8736
8.22222	1.21397	0.910139	45.675
8.32323	1.21397	0.910139	45.4757
8.42424	1.21397	0.910139	45.2758
8.52525	1.21397	0.910139	45.0755
8.62626	1.21397	0.910139	44.8748
8.72727	1.21397	0.910139	44.6739
8.82828	1.21397	0.910139	44.4727
8.92929	1.21397	0.910139	44.2714
9.0303	1.21397	0.910139	44.0699
9.13131	1.21397	0.910139	43.8683
9.23232	1.21397	0.910139	43.6666
9.33333	1.21397	0.910139	43.4648
9.43434	1.21397	0.910139	43.263
9.53535	1.21397	0.910139	43.0612
9.63636	1.21397	0.910139	42.8593
9.73737	1.21397	0.910139	42.6573
9.83838	1.21397	0.910139	42.4554
9.93939	1.21397	0.910139	42.2535
10.0404	1.21397	0.910139	42.0515
10.1414	1.21397	0.910139	41.8495
10.2424	1.21397	0.910139	41.6475
10.3434	1.21397	0.910139	41.4455
10.4444	1.21397	0.910139	41.2435
10.5455	1.21397	0.910139	41.0415
10.6465	1.21397	0.910139	40.8395
10.7475	1.21397	0.910139	40.6375
10.8485	1.21397	0.910139	40.4354
10.9495	1.21397	0.910139	40.2334
11.0505	1.21397	0.910139	40.0314
11.1515	1.21397	0.910139	39.8293
11.2525	1.21397	0.910139	39.6273
11.3535	1.21397	0.910139	39.4252
11.4545	1.21397	0.910139	39.2232
11.5556	1.21397	0.910139	39.0211
11.6566	1.21397	0.910139	38.819
11.7576	1.21397	0.910139	38.6169
11.8586	1.21397	0.910139	38.4148
11.9596	1.21397	0.910139	38.2126
12.0606	1.21397	0.910139	38.0104
12.1616	1.21397	0.910139	37.8081
12.2626	1.21397	0.910139	37.6058
12.3636	1.21397	0.910139	37.4034
12.4646	1.21397	0.910139	37.2009
12.5657	1.21397	0.910139	36.9983
12.6667	1.21397	0.910139	36.7955
12.7677	1.21397	0.910139	36.5925
12.8687	1.21397	0.910139	36.3893
12.9697	1.21397	0.910139	36.1857
13.0707	1.21397	0.910139	35.9818
13.1717	1.21397	0.910139	35.7773
13.2727	1.21397	0.910139	35.5722
13.3737	1.21397	0.910139	35.3663
13.4747	1.21397	0.910139	35.1594
13.5758	1.21397	0.910139	34.9512
13.6768	1.21397	0.910139	34.7414
13.7778	1.21397	0.910139	34.5295
13.8788	1.21397	0.910139	34.3151
13.9798	1.21397	0.910139	34.0974
14.0808	1.21397	0.910139	33.8756
14.1818	1.21397	0.910139	33.6487
14.2828	1.21397	0.910139	33.4152
14.3838	1.21397	0.910139	33.1734
14.4848	1.21397	0.910139	32.9213
14.5859	1.21397	0.910139	32.656
14.6869	1.21397	0.910139	32.3742
14.7879	1.21397	0.910139	32.0715
14.8889	1.21397	0.910139	31.7424
14.9899	1.21397	0.910139	31.38
15.0909	1.21397	0.910139	30.9757
15.1919	1.21397	0.910139	30.5183
15.2929	1.21397	0.910139	29.9941
15.3939	1.21397	0.910139	29.3856
15.4949	1.21397	0.910139	28.6706
15.596	1.21397	0.910139	27.8212
15.697	1.21397	0.910139	26.8024
15.798	1.21397	0.910139	25.5696
15.899	1.21397	0.910139	24.067
16	1.21397	0.910139	22.2238
6	1.22824	0.938811	47.9193
6.10101	1.22824	0.938811	48.1679
6.20202	1.22824	0.938811	48.323
6.30303	1.22824	0.938811	48.4039
6.40404	1.22824	0.938811	48.4262
6.50505	1.22824	0.938811	48.4019
6.60606	1.22824	0.938811	48.3407
6.70707	1.22824	0.938811	48.2503
6.80808	1.22824	0.938811	48.1368
6.90909	1.22824	0.938811	48.0049
7.0101	1.22824	0.938811	47.8584
7.11111	1.22824	0.938811	47.7004
7.21212	1.22824	0.938811	47.5333
7.31313	1.22824	0.938811	47.3589
7.41414	1.22824	0.938811	47.1788
7.51515	1.22824	0.938811	46.9941
7.61616	1.22824	0.938811	46.8059
7.71717	1.22824	0.938811	46.6148
7.81818	1.22824	0.938811	46.4214
7.91919	1.22824	0.938811	46.2262
8.0202	1.22824	0.938811	46.0296
8.12121	1.22824	0.938811	45.8319
8.22222	1.22824	0.938811	45.6333
8.32323	1.22824	0.938811	45.434
8.42424	1.22824	0.938811	45.2341
8.52525	1.22824	0.938811	45.0338
8.62626	1.22824	0.938811	44.8331
8.72727	1.22824	0.938811	44.6321
8.82828	1.22824	0.938811	44.431
8.92929	1.22824	0.938811	44.2296
9.0303	1.22824	0.938811	44.0281
9.13131	1.22824	0.938811	43.8265
9.23232	1.22824	0.938811	43.6248
9.33333	1.22824	0.938811	43.4231
9.43434	1.22824	0.938811	43.2213
9.53535	1.22824	0.938811	43.0194
9.63636	1.22824	0.938811	42.8175
9.73737	1.22824	0.938811	42.6156
9.83838	1.22824	0.938811	42.4137
9.93939	1.22824	0.938811	42.2117
10.0404	1.22824	0.938811	42.0097
10.1414	1.22824	0.938811	41.8077
10.2424	1.22824	0.938811	41.6058
10.3434	1.22824	0.938811	41.4038
10.4444	1.22824	0.938811	41.2018
10.5455	1.22824	0.938811	40.9997
10.6465	1.22824	0.938811	40.7977
10.7475	1.22824	0.938811	40.5957
10.8485	1.22824	0.938811	40.3937
10.9495	1.22824	0.938811	40.1917
11.0505	1.22824	0.938811	39.9896
11.1515	1.22824	0.938811	39.7876
11.2525	1.22824	0.938811	39.5855
11.3535	1.22824	0.938811	39.3835
11.4545	1.22824	0.938811	39.1814
11.5556	1.22824	0.938811	38.9793
11.6566	1.22824	0.938811	38.7772
11.7576	1.22824	0.938811	38.5751
11.8586	1.22824	0.938811	38.373
11.9596	1.22824	0.938811	38.1708
12.0606	1.22824	0.938811	37.9686
12.1616	1.22824	0.938811	37.7664
12.2626	1.22824	0.938811	37.564
12.3636	1.22824	0.938811	37.3616
12.4646	1.22824	0.938811	37.1591
12.5657	1.22824	0.938811	36.9565
12.6667	1.22824	0.938811	36.7537
12.7677	1.22824	0.938811	36.5508
12.8687	1.22824	0.938811	36.3475
12.9697	1.22824	0.938811	36.144
13.0707	1.22824	0.938811	35.94
13.1717	1.22824	0.938811	35.7356
13.2727	1.22824	0.938811	35.5305
13.3737	1.22824	0.938811	35.3246
13.4747	1.22824	0.938811	35.1176
13.5758	1.22824	0.938811	34.9095
13.6768	1.22824	0.938811	34.6996
13.7778	1.22824	0.938811	34.4878
13.8788	1.22824	0.938811	34.2733
13.9798	1.22824	0.938811	34.0557
14.0808	1.22824	0.938811	33.8339
14.1818	1.22824	0.938811	33.6069
14.2828	1.22824	0.938811	33.3734
14.3838	1.22824	0.938811	33.1317
14.4848	1.22824	0.938811	32.8795
14.5859	1.22824	0.938811	32.6143
14.6869	1.22824	0.938811	32.3324
14.7879	1.22824	0.938811	32.0297
14.8889	1.22824	0.938811	31.7006
14.9899	1.22824	0.938811	31.3383
15.0909	1.22824	0.938811	30.9339
15.1919	1.22824	0.938811	30.4766
15.2929	1.22824	0.938811	29.9524
15.3939	1.22824	0.938811	29.3438
15.4949	1.22824	0.938811	28.6288
15.596	1.22824	0.938811	27.7795
15.697	1.22824	0.938811	26.7606
15.798	1.22824	0.938811	25.5279
15.899	1.22824	0.938811	24.0252
16	1.22824	0.938811	22.182
6	1.2425	0.96632	47.8772
6.10101	1.2425	0.96632	48.1258
6.20202	1.2425	0.96632	48.2809
6.30303	1.2425	0.96632	48.3618
6.40404	1.2425	0.96632	48.3841
6.50505	1.2425	0.96632	48.3598
6.60606	1.2425	0.96632	48.2986
6.70707	1.2425	0.96632	48.2082
6.80808	1.2425	0.96632	48.0947
6.90909	1.2425	0.96632	47.9627
7.0101	1.2425	0.96632	47.8163
7.11111	1.2425	0.96632	47.6583
7.21212	1.2425	0.96632	47.4912
7.31313	1.2425	0.96632	47.3168
7.41414	1.2425	0.96632	47.1367
7.51515	1.2425	0.96632	46.952
7.61616	1.2425	0.96632	46.7638
7.71717	1.2425	0.96632	46.5726
7.81818	1.2425	0.96632	46.3793
7.91919	1.2425	0.96632	46.1841
8.0202	1.2425	0.96632	45.9875
8.12121	1.2425	0.96632	45.7898
8.22222	1.2425	0.96632	45.5912
8.32323	1.2425	0.96632	45.3919
8.42424	1.2425	0.96632	45.192
8.52525	1.2425	0.96632	44.9917
8.62626	1.2425	0.96632	44.791
8.72727	1.2425	0.96632	44.59
8.82828	1.2425	0.96632	44.3888
8.92929	1.2425	0.96632	44.1875
9.0303	1.2425	0.96632	43.986
9.13131	1.2425	0.96632	43.7844
9.23232	1.2425	0.96632	43.5827
9.33333	1.2425	0.96632	43.381
9.43434	1.2425	0.96632	43.1792
9.53535	1.2425	0.96632	42.9773
9.63636	1.2425	0.96632	42.7754
9.73737	1.2425	0.96632	42.5735
9.83838	1.2425	0.96632	42.3716
9.93939	1.2425	0.96632	42.1696
10.0404	1.2425	0.96632	41.9676
10.1414	1.2425	0.96632	41.7656
10.2424	1.2425	0.96632	41.5637
10.3434	1.2425	0.96632	41.3617
10.4444	1.2425	0.96632	41.1597
10.5455	1.2425	0.96632	40.9576
10.6465	1.2425	0.96632	40.7556
10.7475	1.2425	0.96632	40.5536
10.8485	1.2425	0.96632	40.3516
10.9495	1.2425	0.96632	40.1496
11.0505	1.2425	0.96632	39.9475
11.1515	1.2425	0.96632	39.7455
11.2525	1.2425	0.96632	39.5434
11.3535	1.2425	0.96632	39.3414
11.4545	1.2425	0.96632	39.1393
11.5556	1.2425	0.96632	38.9372
11.6566	1.2425	0.96632	38.7351
11.7576	1.2425	0.96632	38.533
11.8586	1.2425	0.96632	38.3309
11.9596	1.2425	0.96632	38.1287
12.0606	1.2425	0.96632	37.9265
12.1616	1.2425	0.96632	37.7243
12.2626	1.2425	0.96632	37.5219
12.3636	1.2425	0.96632	37.3195
12.4646	1.2425	0.96632	37.117
12.5657	1.2425	0.96632	36.9144
12.6667	1.2425	0.96632	36.7116
12.7677	1.2425	0.96632	36.5087
12.8687	1.2425	0.96632	36.3054
12.9697	1.2425	0.96632	36.1019
13.0707	1.2425	0.96632	35.8979
13.1717	1.2425	0.96632	35.6935
13.2727	1.2425	0.96632	35.4884
13.3737	1.2425	0.96632	35.2825
13.4747	1.2425	0.96632	35.0755
13.5758	1.2425	0.96632	34.8673
13.6768	1.2425	0.96632	34.6575
13.7778	1.2425	0.96632	34.4457
13.8788	1.2425	0.96632	34.2312
13.9798	1.2425	0.96632	34.0136
14.0808	1.2425	0.96632	33.7918
14.1818	1.2425	0.96632	33.5648
14.2828	1.2425	0.96632	33.3313
14.3838	1.2425	0.96632	33.0896
14.4848	1.2425	0.96632	32.8374
14.5859	1.2425	0.96632	32.5722
14.6869	1.2425	0.96632	32.2903
14.7879	1.2425	0.96632	31.9876
14.8889	1.2425	0.96632	31.6585
14.9899	1.2425	0.96632	31.2962
15.0909	1.2425	0.96632	30.8918
15.1919	1.2425	0.96632	30.4345
15.2929	1.2425	0.96632	29.9103
15.3939	1.2425	0.96632	29.3017
15.4949	1.2425	0.96632	28.5867
15.596	1.2425	0.96632	27.7374
15.697	1.2425	0.96632	26.7185
15.798	1.2425	0.96632	25.4858
15.899	1.2425	0.96632	23.9831
16	1.2425	0.96632	22.1399
6	1.25676	0.992868	47.8348
6.10101	1.25676	0.992868	48.0834
6.20202	1.25676	0.992868	48.2385
6.30303	1.25676	0.992868	48.3195
6.40404	1.25676	0.992868	48.3418
6.50505	1.25676	0.992868	48.3175
6.60606	1.25676	0.992868	48.2563
6.70707	1.25676	0.992868	48.1659
6.80808	1.25676	0.992868	48.0523
6.90909	1.25676	0.992868	47.9204
7.0101	1.25676	0.992868	47.7739
7.11111	1.25676	0.992868	47.616
7.21212	1.25676	0.992868	47.4488
7.31313	1.25676	0.992868	47.2745
7.41414	1.25676	0.992868	47.0943
7.51515	1.25676	0.992868	46.9097
7.61616	1.25676	0.992868	46.7214
7.71717	1.25676	0.992868	46.5303
7.81818	1.25676	0.992868	46.3369
7.91919	1.25676	0.992868	46.1418
8.0202	1.25676	0.992868	45.9452
8.12121	1.25676	0.992868	45.7475
8.22222	1.25676	0.992868	45.5488
8.32323	1.25676	0.992868	45.3495
8.42424	1.25676	0.992868	45.1496
8.52525	1.25676	0.992868	44.9493
8.62626	1.25676	0.992868	44.7486
8.72727	1.25676	0.992868	44.5477
8.82828	1.25676	0.992868	44.3465
8.92929	1.25676	0.992868	44.1452
9.0303	1.25676	0.992868	43.9437
9.13131	1.25676	0.992868	43.7421
9.23232	1.25676	0.992868	43.5404
9.33333	1.25676	0.992868	43.3386
9.43434	1.25676	0.992868	43.1368
9.53535	1.25676	0.992868	42.935
9.63636	1.25676	0.992868	42.7331
9.73737	1.25676	0.992868	42.5312
9.83838	1.25676	0.992868	42.3292
9.93939	1.25676	0.992868	42.1273
10.0404	1.25676	0.992868	41.9253
10.1414	1.25676	0.992868	41.7233
10.2424	1.25676	0.992868	41.5213
10.3434	1.25676	0.992868	41.3193
10.4444	1.25676	0.992868	41.1173
10.5455	1.25676	0.992868	40.9153
10.6465	1.25676	0.992868	40.7133
10.7475	1.25676	0.992868	40.5113
10.8485	1.25676	0.992868	40.3093
10.9495	1.25676	0.992868	40.1072
11.0505	1.25676	0.992868	39.9052
11.1515	1.25676	0.992868	39.7031
11.2525	1.25676	0.992868	39.5011
11.3535	1.25676	0.992868	39.299
11.4545	1.25676	0.992868	39.097
11.5556	1.25676	0.992868	38.8949
11.6566	1.25676	0.992868	38.6928
11.7576	1.25676	0.992868	38.4907
11.8586	1.25676	0.992868	38.2886
11.9596	1.25676	0.992868	38.0864
12.0606	1.25676	0.992868	37.8842
12.1616	1.25676	0.992868	37.6819
12.2626	1.25676	0.992868	37.4796
12.3636	1.25676	0.992868	37.2772
12.4646	1.25676	0.992868	37.0747
12.5657	1.25676	0.992868	36.8721
12.6667	1.25676	0.992868	36.6693
12.7677	1.25676	0.992868	36.4663
12.8687	1.25676	0.992868	36.2631
12.9697	1.25676	0.992868	36.0595
13.0707	1.25676	0.992868	35.8556
13.1717	1.25676	0.992868	35.6511
13.2727	1.25676	0.992868	35.446
13.3737	1.25676	0.992868	35.2401
13.4747	1.25676	0.992868	35.0332
13.5758	1.25676	0.992868	34.825
13.6768	1.25676	0.992868	34.6152
13.7778	1.25676	0.992868	34.4033
13.8788	1.25676	0.992868	34.1889
13.9798	1.25676	0.992868	33.9712
14.0808	1.25676	0.992868	33.7494
14.1818	1.25676	0.992868	33.5225
14.2828	1.25676	0.992868	33.289
14.3838	1.25676	0.992868	33.0472
14.4848	1.25676	0.992868	32.7951
14.5859	1.25676	0.992868	32.5298
14.6869	1.25676	0.992868	32.248
14.7879	1.25676	0.992868	31.9453
14.8889	1.25676	0.992868	31.6162
14.9899	1.25676	0.992868	31.2538
15.0909	1.25676	0.992868	30.8495
15.1919	1.25676	0.992868	30.3921
15.2929	1.25676	0.992868	29.8679
15.3939	1.25676	0.992868	29.2594
15.4949	1.25676	0.992868	28.5444
15.596	1.25676	0.992868	27.695
15.697	1.25676	0.992868	26.6762
15.798	1.25676	0.992868	25.4434
15.899	1.25676	0.992868	23.9408
16	1.25676	0.992868	22.0976
6	1.27103	1.01863	47.7924
6.10101	1.27103	1.01863	48.041
6.20202	1.27103	1.01863	48.196
6.30303	1.27103	1.01863	48.277
6.40404	1.27103	1.01863	48.2993
6.50505	1.27103	1.01863	48.275
6.60606	1.27103	1.01863	48.2138
6.70707	1.27103	1.01863	48.1234
6.80808	1.27103	1.01863	48.0099
6.90909	1.27103	1.01863	47.8779
7.0101	1.27103	1.01863	47.7315
7.11111	1.27103	1.01863	47.5735
7.21212	1.27103	1.01863	47.4064
7.31313	1.27103	1.01863	47.232
7.41414	1.27103	1.01863	47.0519
7.51515	1.27103	1.01863	46.8672
7.61616	1.27103	1.01863	46.679
7.71717	1.27103	1.01863	46.4878
7.81818	1.27103	1.01863	46.2945
7.91919	1.27103	1.01863	46.0993
8.0202	1.27103	1.01863	45.9027
8.12121	1.27103	1.01863	45.705
8.22222	1.27103	1.01863	45.5064
8.32323	1.27103	1.01863	45.3071
8.42424	1.27103	1.01863	45.1072
8.52525	1.27103	1.01863	44.9068
8.62626	1.27103	1.01863	44.7062
8.72727	1.27103	1.01863	44.5052
8.82828	1.27103	1.01863	44.304
8.92929	1.27103	1.01863	44.1027
9.0303	1.27103	1.01863	43.9012
9.13131	1.27103	1.01863	43.6996
9.23232	1.27103	1.01863	43.4979
9.33333	1.27103	1.01863	43.2962
9.43434	1.27103	1.01863	43.0943
9.53535	1.27103	1.01863	42.8925
9.63636	1.27103	1.01863	42.6906
9.73737	1.27103	1.01863	42.4887
9.83838	1.27103	1.01863	42.2867
9.93939	1.27103	1.01863	42.0848
10.0404	1.27103	1.01863	41.8828
10.1414	1.27103	1.01863	41.6808
10.2424	1.27103	1.01863	41.4788
10.3434	1.27103	1.01863	41.2768
10.4444	1.27103	1.01863	41.0748
10.5455	1.27103	1.01863	40.8728
10.6465	1.27103	1.01863	40.6708
10.7475	1.27103	1.01863	40.4688
10.8485	1.27103	1.01863	40.2668
10.9495	1.27103	1.01863	40.0647
11.0505	1.27103	1.01863	39.8627
11.1515	1.27103	1.01863	39.6607
11.2525	1.27103	1.01863	39.4586
11.3535	1.27103	1.01863	39.2566
11.4545	1.27103	1.01863	39.0545
11.5556	1.27103	1.01863	38.8524
11.6566	1.27103	1.01863	38.6503
11.7576	1.27103	1.01863	38.4482
11.8586	1.27103	1.01863	38.2461
11.9596	1.27103	1.01863	38.0439
12.0606	1.27103	1.01863	37.8417
12.1616	1.27103	1.01863	37.6395
12.2626	1.27103	1.01863	37.4371
12.3636	1.27103	1.01863	37.2347
12.4646	1.27103	1.01863	37.0322
12.5657	1.27103	1.01863	36.8296
12.6667	1.27103	1.01863	36.6268
12.7677	1.27103	1.01863	36.4238
12.8687	1.27103	1.01863	36.2206
12.9697	1.27103	1.01863	36.0171
13.0707	1.27103	1.01863	35.8131
13.1717	1.27103	1.01863	35.6087
13.2727	1.27103	1.01863	35.4036
13.3737	1.27103	1.01863	35.1977
13.4747	1.27103	1.01863	34.9907
13.5758	1.27103	1.01863	34.7825
13.6768	1.27103	1.01863	34.5727
13.7778	1.27103	1.01863	34.3609
13.8788	1.27103	1.01863	34.1464
13.9798	1.27103	1.01863	33.9287
14.0808	1.27103	1.01863	33.707
14.1818	1.27103	1.01863	33.48
14.2828	1.27103	1.01863	33.2465
14.3838	1.27103	1.01863	33.0048
14.4848	1.27103	1.01863	32.7526
14.5859	1.27103	1.01863	32.4874
14.6869	1.27103	1.01863	32.2055
14.7879	1.27103	1.01863	31.9028
14.8889	1.27103	1.01863	31.5737
14.9899	1.27103	1.01863	31.2113
15.0909	1.27103	1.01863	30.807
15.1919	1.27103	1.01863	30.3497
15.2929	1.27103	1.01863	29.8255
15.3939	1.27103	1.01863	29.2169
15.4949	1.27103	1.01863	28.5019
15.596	1.27103	1.01863	27.6525
15.697	1.27103	1.01863	26.6337
15.798	1.27103	1.01863	25.401
15.899	1.27103	1.01863	23.8983
16	1.27103	1.01863	22.0551
6	1.28529	1.04841	47.7559
6.10101	1.28529	1.04841	48.0045
6.20202	1.28529	1.04841	48.1596
6.30303	1.28529	1.04841	48.2406
6.40404	1.28529	1.04841	48.2628
6.50505	1.28529	1.04841	48.2385
6.60606	1.28529	1.04841	48.1774
6.70707	1.28529	1.04841	48.087
6.80808	1.28529	1.04841	47.9734
6.90909	1.28529	1.04841	47.8415
7.0101	1.28529	1.04841	47.695
7.11111	1.28529	1.04841	47.537
7.21212	1.28529	1.04841	47.3699
7.31313	1.28529	1.04841	47.1955
7.41414	1.28529	1.04841	47.0154
7.51515	1.28529	1.04841	46.8308
7.61616	1.28529	1.04841	46.6425
7.71717	1.28529	1.04841	46.4514
7.81818	1.28529	1.04841	46.258
7.91919	1.28529	1.04841	46.0628
8.0202	1.28529	1.04841	45.8662
8.12121	1.28529	1.04841	45.6685
8.22222	1.28529	1.04841	45.4699
8.32323	1.28529	1.04841	45.2706
8.42424	1.28529	1.04841	45.0707
8.52525	1.28529	1.04841	44.8704
8.62626	1.28529	1.04841	44.6697
8.72727	1.28529	1.04841	44.4688
8.82828	1.28529	1.04841	44.2676
8.92929	1.28529	1.04841	44.0662
9.0303	1.28529	1.04841	43.8647
9.13131	1.28529	1.04841	43.6631
9.23232	1.28529	1.04841	43.4615
9.33333	1.28529	1.04841	43.2597
9.43434	1.28529	1.04841	43.0579
9.53535	1.28529	1.04841	42.856
9.63636	1.28529	1.04841	42.6541
9.73737	1.28529	1.04841	42.4522
9.83838	1.28529	1.04841	42.2503
9.93939	1.28529	1.04841	42.0483
10.0404	1.28529	1.04841	41.8464
10.1414	1.28529	1.04841	41.6444
10.2424	1.28529	1.04841	41.4424
10.3434	1.28529	1.04841	41.2404
10.4444	1.28529	1.04841	41.0384
10.5455	1.28529	1.04841	40.8364
10.6465	1.28529	1.04841	40.6344
10.7475	1.28529	1.04841	40.4323
10.8485	1.28529	1.04841	40.2303
10.9495	1.28529	1.04841	40.0283
11.0505	1.28529	1.04841	39.8263
11.1515	1.28529	1.04841	39.6242
11.2525	1.28529	1.04841	39.4222
11.3535	1.28529	1.04841	39.2201
11.4545	1.28529	1.04841	39.0181
11.5556	1.28529	1.04841	38.816
11.6566	1.28529	1.04841	38.6139
11.7576	1.28529	1.04841	38.4118
11.8586	1.28529	1.04841	38.2096
11.9596	1.28529	1.04841	38.0075
12.0606	1.28529	1.04841	37.8053
12.1616	1.28529	1.04841	37.603
12.2626	1.28529	1.04841	37.4007
12.3636	1.28529	1.04841	37.1983
12.4646	1.28529	1.04841	36.9958
12.5657	1.28529	1.04841	36.7932
12.6667	1.28529	1.04841	36.5904
12.7677	1.28529	1.04841	36.3874
12.8687	1.28529	1.04841	36.1842
12.9697	1.28529	1.04841	35.9806
13.0707	1.28529	1.04841	35.7767
13.1717	1.28529	1.04841	35.5722
13.2727	1.28529	1.04841	35.3671
13.3737	1.28529	1.04841	35.1612
13.4747	1.28529	1.04841	34.9543
13.5758	1.28529	1.04841	34.7461
13.6768	1.28529	1.04841	34.5363
13.7778	1.28529	1.04841	34.3244
13.8788	1.28529	1.04841	34.11
13.9798	1.28529	1.04841	33.8923
14.0808	1.28529	1.04841	33.6705
14.1818	1.28529	1.04841	33.4435
14.2828	1.28529	1.04841	33.21
14.3838	1.28529	1.04841	32.9683
14.4848	1.28529	1.04841	32.7162
14.5859	1.28529	1.04841	32.4509
14.6869	1.28529	1.04841	32.1691
14.7879	1.28529	1.04841	31.8663
14.8889	1.28529	1.04841	31.5373
14.9899	1.28529	1.04841	31.1749
15.0909	1.28529	1.04841	30.7705
15.1919	1.28529	1.04841	30.3132
15.2929	1.28529	1.04841	29.789
15.3939	1.28529	1.04841	29.1804
15.4949	1.28529	1.04841	28.4654
15.596	1.28529	1.04841	27.6161
15.697	1.28529	1.04841	26.5972
15.798	1.28529	1.04841	25.3645
15.899	1.28529	1.04841	23.8619
16	1.28529	1.04841	22.0186
6	1.29956	1.07302	47.7132
6.10101	1.29956	1.07302	47.9618
6.20202	1.29956	1.07302	48.1169
6.30303	1.29956	1.07302	48.1979
6.40404	1.29956	1.07302	48.2202
6.50505	1.29956	1.07302	48.1959
6.60606	1.29956	1.07302	48.1347
6.70707	1.29956	1.07302	48.0443
6.80808	1.29956	1.07302	47.9307
6.90909	1.29956	1.07302	47.7988
7.0101	1.29956	1.07302	47.6524
7.11111	1.29956	1.07302	47.4944
7.21212	1.29956	1.07302	47.3272
7.31313	1.29956	1.07302	47.1529
7.41414	1.29956	1.07302	46.9728
7.51515	1.29956	1.07302	46.7881
7.61616	1.29956	1.07302	46.5998
7.71717	1.29956	1.07302	46.4087
7.81818	1.29956	1.07302	46.2153
7.91919	1.29956	1.07302	46.0202
8.0202	1.29956	1.07302	45.8236
8.12121	1.29956	1.07302	45.6259
8.22222	1.29956	1.07302	45.4273
8.32323	1.29956	1.07302	45.2279
8.42424	1.29956	1.07302	45.0281
8.52525	1.29956	1.07302	44.8277
8.62626	1.29956	1.07302	44.6271
8.72727	1.29956	1.07302	44.4261
8.82828	1.29956	1.07302	44.2249
8.92929	1.29956	1.07302	44.0236
9.0303	1.29956	1.07302	43.8221
9.13131	1.29956	1.07302	43.6205
9.23232	1.29956	1.07302	43.4188
9.33333	1.29956	1.07302	43.217
9.43434	1.29956	1.07302	43.0152
9.53535	1.29956	1.07302	42.8134
9.63636	1.29956	1.07302	42.6115
9.73737	1.29956	1.07302	42.4096
9.83838	1.29956	1.07302	42.2076
9.93939	1.29956	1.07302	42.0057
10.0404	1.29956	1.07302	41.8037
10.1414	1.29956	1.07302	41.6017
10.2424	1.29956	1.07302	41.3997
10.3434	1.29956	1.07302	41.1977
10.4444	1.29956	1.07302	40.9957
10.5455	1.29956	1.07302	40.7937
10.6465	1.29956	1.07302	40.5917
10.7475	1.29956	1.07302	40.3897
10.8485	1.29956	1.07302	40.1877
10.9495	1.29956	1.07302	39.9856
11.0505	1.29956	1.07302	39.7836
11.1515	1.29956	1.07302	39.5816
11.2525	1.29956	1.07302	39.3795
11.3535	1.29956	1.07302	39.1775
11.4545	1.29956	1.07302	38.9754
11.5556	1.29956	1.07302	38.7733
11.6566	1.29956	1.07302	38.5712
11.7576	1.29956	1.07302	38.3691
11.8586	1.29956	1.07302	38.167
11.9596	1.29956	1.07302	37.9648
12.0606	1.29956	1.07302	37.7626
12.1616	1.29956	1.07302	37.5603
12.2626	1.29956	1.07302	37.358
12.3636	1.29956	1.07302	37.1556
12.4646	1.29956	1.07302	36.9531
12.5657	1.29956	1.07302	36.7505
12.6667	1.29956	1.07302	36.5477
12.7677	1.29956	1.07302	36.3447
12.8687	1.29956	1.07302	36.1415
12.9697	1.29956	1.07302	35.9379
13.0707	1.29956	1.07302	35.734
13.1717	1.29956	1.07302	35.5295
13.2727	1.29956	1.07302	35.3244
13.3737	1.29956	1.07302	35.1185
13.4747	1.29956	1.07302	34.9116
13.5758	1.29956	1.07302	34.7034
13.6768	1.29956	1.07302	34.4936
13.7778	1.29956	1.07302	34.2817
13.8788	1.29956	1.07302	34.0673
13.9798	1.29956	1.07302	33.8496
14.0808	1.29956	1.07302	33.6278
14.1818	1.29956	1.07302	33.4009
14.2828	1.29956	1.07302	33.1674
14.3838	1.29956	1.07302	32.9256
14.4848	1.29956	1.07302	32.6735
14.5859	1.29956	1.07302	32.4082
14.6869	1.29956	1.07302	32.1264
14.7879	1.29956	1.07302	31.8237
14.8889	1.29956	1.07302	31.4946
14.9899	1.29956	1.07302	31.1322
15.0909	1.29956	1.07302	30.7279
15.1919	1.29956	1.07302	30.2705
15.2929	1.29956	1.07302	29.7463
15.3939	1.29956	1.07302	29.1378
15.4949	1.29956	1.07302	28.4228
15.596	1.29956	1.07302	27.5734
15.697	1.29956	1.07302	26.5546
15.798	1.29956	1.07302	25.3218
15.899	1.29956	1.07302	23.8192
16	1.29956	1.07302	21.976
6	1.31382	1.09725	47.6706
6.10101	1.31382	1.09725	47.9192
6.20202	1.31382	1.09725	48.0743
6.30303	1.31382	1.09725	48.1553
6.40404	1.31382	1.09725	48.1775
6.50505	1.31382	1.09725	48.1533
6.60606	1.31382	1.09725	48.0921
6.70707	1.31382	1.09725	48.0017
6.80808	1.31382	1.09725	47.8881
6.90909	1.31382	1.09725	47.7562
7.0101	1.31382	1.09725	47.6097
7.11111	1.31382	1.09725	47.4517
7.21212	1.31382	1.09725	47.2846
7.31313	1.31382	1.09725	47.1102
7.41414	1.31382	1.09725	46.9301
7.51515	1.31382	1.09725	46.7455
7.61616	1.31382	1.09725	46.5572
7.71717	1.31382	1.09725	46.3661
7.81818	1.31382	1.09725	46.1727
7.91919	1.31382	1.09725	45.9776
8.0202	1.31382	1.09725	45.781
8.12121	1.31382	1.09725	45.5832
8.22222	1.31382	1.09725	45.3846
8.32323	1.31382	1.09725	45.1853
8.42424	1.31382	1.09725	44.9854
8.52525	1.31382	1.09725	44.7851
8.62626	1.31382	1.09725	44.5844
8.72727	1.31382	1.09725	44.3835
8.82828	1.31382	1.09725	44.1823
8.92929	1.31382	1.09725	43.981
9.0303	1.31382	1.09725	43.7795
9.13131	1.31382	1.09725	43.5779
9.23232	1.31382	1.09725	43.3762
9.33333	1.31382	1.09725	43.1744
9.43434	1.31382	1.09725	42.9726
9.53535	1.31382	1.09725	42.7708
9.63636	1.31382	1.09725	42.5689
9.73737	1.31382	1.09725	42.3669
9.83838	1.31382	1.09725	42.165
9.93939	1.31382	1.09725	41.9631
10.0404	1.31382	1.09725	41.7611
10.1414	1.31382	1.09725	41.5591
10.2424	1.31382	1.09725	41.3571
10.3434	1.31382	1.09725	41.1551
10.4444	1.31382	1.09725	40.9531
10.5455	1.31382	1.09725	40.7511
10.6465	1.31382	1.09725	40.5491
10.7475	1.31382	1.09725	40.3471
10.8485	1.31382	1.09725	40.145
10.9495	1.31382	1.09725	39.943
11.0505	1.31382	1.09725	39.741
11.1515	1.31382	1.09725	39.5389
11.2525	1.31382	1.09725	39.3369
11.3535	1.31382	1.09725	39.1348
11.4545	1.31382	1.09725	38.9328
11.5556	1.31382	1.09725	38.7307
11.6566	1.31382	1.09725	38.5286
11.7576	1.31382	1.09725	38.3265
11.8586	1.31382	1.09725	38.1244
11.9596	1.31382	1.09725	37.9222
12.0606	1.31382	1.09725	37.72
12.1616	1.31382	1.09725	37.5177
12.2626	1.31382	1.09725	37.3154
12.3636	1.31382	1.09725	37.113
12.4646	1.31382	1.09725	36.9105
12.5657	1.31382	1.09725	36.7079
12.6667	1.31382	1.09725	36.5051
12.7677	1.31382	1.09725	36.3021
12.8687	1.31382	1.09725	36.0989
12.9697	1.31382	1.09725	35.8953
13.0707	1.31382	1.09725	35.6914
13.1717	1.31382	1.09725	35.4869
13.2727	1.31382	1.09725	35.2818
13.3737	1.31382	1.09725	35.0759
13.4747	1.31382	1.09725	34.869
13.5758	1.31382	1.09725	34.6608
13.6768	1.31382	1.09725	34.451
13.7778	1.31382	1.09725	34.2391
13.8788	1.31382	1.09725	34.0247
13.9798	1.31382	1.09725	33.807
14.0808	1.31382	1.09725	33.5852
14.1818	1.31382	1.09725	33.3583
14.2828	1.31382	1.09725	33.1248
14.3838	1.31382	1.09725	32.883
14.4848	1.31382	1.09725	32.6309
14.5859	1.31382	1.09725	32.3656
14.6869	1.31382	1.09725	32.0838
14.7879	1.31382	1.09725	31.7811
14.8889	1.31382	1.09725	31.452
14.9899	1.31382	1.09725	31.0896
15.0909	1.31382	1.09725	30.6853
15.1919	1.31382	1.09725	30.2279
15.2929	1.31382	1.09725	29.7037
15.3939	1.31382	1.09725	29.0952
15.4949	1.31382	1.09725	28.3802
15.596	1.31382	1.09725	27.5308
15.697	1.31382	1.09725	26.512
15.798	1.31382	1.09725	25.2792
15.899	1.31382	1.09725	23.7766
16	1.31382	1.09725	21.9334
6	1.32809	1.12578	47.6338
6.10101	1.32809	1.12578	47.8824
6.20202	1.32809	1.12578	48.0375
6.30303	1.32809	1.12578	48.1185
6.40404	1.32809	1.12578	48.1408
6.50505	1.32809	1.12578	48.1165
6.60606	1.32809	1.12578	48.0553
6.70707	1.32809	1.12578	47.9649
6.80808	1.32809	1.12578	47.8513
6.90909	1.32809	1.12578	47.7194
7.0101	1.32809	1.12578	47.573
7.11111	1.32809	1.12578	47.415
7.21212	1.32809	1.12578	47.2478
7.31313	1.32809	1.12578	47.0735
7.41414	1.32809	1.12578	46.8934
7.51515	1.32809	1.12578	46.7087
7.61616	1.32809	1.12578	46.5204
7.71717	1.32809	1.12578	46.3293
7.81818	1.32809	1.12578	46.136
7.91919	1.32809	1.12578	45.9408
8.0202	1.32809	1.12578	45.7442
8.12121	1.32809	1.12578	45.5465
8.22222	1.32809	1.12578	45.3479
8.32323	1.32809	1.12578	45.1485
8.42424	1.32809	1.12578	44.9487
8.52525	1.32809	1.12578	44.7483
8.62626	1.32809	1.12578	44.5477
8.72727	1.32809	1.12578	44.3467
8.82828	1.32809	1.12578	44.1455
8.92929	1.32809	1.12578	43.9442
9.0303	1.32809	1.12578	43.7427
9.13131	1.32809	1.12578	43.5411
9.23232	1.32809	1.12578	43.3394
9.33333	1.32809	1.12578	43.1376
9.43434	1.32809	1.12578	42.9358
9.53535	1.32809	1.12578	42.734
9.63636	1.32809	1.12578	42.5321
9.73737	1.32809	1.12578	42.3302
9.83838	1.32809	1.12578	42.1282
9.93939	1.32809	1.12578	41.9263
10.0404	1.32809	1.12578	41.7243
10.1414	1.32809	1.12578	41.5223
10.2424	1.32809	1.12578	41.3203
10.3434	1.32809	1.12578	41.1183
10.4444	1.32809	1.12578	40.9163
10.5455	1.32809	1.12578	40.7143
10.6465	1.32809	1.12578	40.5123
10.7475	1.32809	1.12578	40.3103
10.8485	1.32809	1.12578	40.1083
10.9495	1.32809	1.12578	39.9062
11.0505	1.32809	1.12578	39.7042
11.1515	1.32809	1.12578	39.5022
11.2525	1.32809	1.12578	39.3001
11.3535	1.32809	1.12578	39.0981
11.4545	1.32809	1.12578	38.896
11.5556	1.32809	1.12578	38.6939
11.6566	1.32809	1.12578	38.4918
11.7576	1.32809	1.12578	38.2897
11.8586	1.32809	1.12578	38.0876
11.9596	1.32809	1.12578	37.8854
12.0606	1.32809	1.12578	37.6832
12.1616	1.32809	1.12578	37.4809
12.2626	1.32809	1.12578	37.2786
12.3636	1.32809	1.12578	37.0762
12.4646	1.32809	1.12578	36.8737
12.5657	1.32809	1.12578	36.6711
12.6667	1.32809	1.12578	36.4683
12.7677	1.32809	1.12578	36.2653
12.8687	1.32809	1.12578	36.0621
12.9697	1.32809	1.12578	35.8585
13.0707	1.32809	1.12578	35.6546
13.1717	1.32809	1.12578	35.4501
13.2727	1.32809	1.12578	35.245
13.3737	1.32809	1.12578	35.0391
13.4747	1.32809	1.12578	34.8322
13.5758	1.32809	1.12578	34.624
13.6768	1.32809	1.12578	34.4142
13.7778	1.32809	1.12578	34.2024
13.8788	1.32809	1.12578	33.9879
13.9798	1.32809	1.12578	33.7702
14.0808	1.32809	1.12578	33.5484
14.1818	1.32809	1.12578	33.3215
14.2828	1.32809	1.12578	33.088
14.3838	1.32809	1.12578	32.8462
14.4848	1.32809	1.12578	32.5941
14.5859	1.32809	1.12578	32.3288
14.6869	1.32809	1.12578	32.047
14.7879	1.32809	1.12578	31.7443
14.8889	1.32809	1.12578	31.4152
14.9899	1.32809	1.12578	31.0528
15.0909	1.32809	1.12578	30.6485
15.1919	1.32809	1.12578	30.1911
15.2929	1.32809	1.12578	29.6669
15.3939	1.32809	1.12578	29.0584
15.4949	1.32809	1.12578	28.3434
15.596	1.32809	1.12578	27.494
15.697	1.32809	1.12578	26.4752
15.798	1.32809	1.12578	25.2424
15.899	1.32809	1.12578	23.7398
16	1.32809	1.12578	21.8966
6	1.34235	1.14953	47.5913
6.10101	1.34235	1.14953	47.8399
6.20202	1.34235	1.14953	47.995
6.30303	1.34235	1.14953	48.076
6.40404	1.34235	1.14953	48.0982
6.50505	1.34235	1.14953	48.074
6.60606	1.34235	1.14953	48.0128
6.70707	1.34235	1.14953	47.9224
6.80808	1.34235	1.14953	47.8088
6.90909	1.34235	1.14953	47.6769
7.0101	1.34235	1.14953	47.5304
7.11111	1.34235	1.14953	47.3724
7.21212	1.34235	1.14953	47.2053
7.31313	1.34235	1.14953	47.0309
7.41414	1.34235	1.14953	46.8508
7.51515	1.34235	1.14953	46.6662
7.61616	1.34235	1.14953	46.4779
7.71717	1.34235	1.14953	46.2868
7.81818	1.34235	1.14953	46.0934
7.91919	1.34235	1.14953	45.8983
8.0202	1.34235	1.14953	45.7017
8.12121	1.34235	1.14953	45.5039
8.22222	1.34235	1.14953	45.3053
8.32323	1.34235	1.14953	45.106
8.42424	1.34235	1.14953	44.9061
8.52525	1.34235	1.14953	44.7058
8.62626	1.34235	1.14953	44.5051
8.72727	1.34235	1.14953	44.3042
8.82828	1.34235	1.14953	44.103
8.92929	1.34235	1.14953	43.9017
9.0303	1.34235	1.14953	43.7002
9.13131	1.34235	1.14953	43.4986
9.23232	1.34235	1.14953	43.2969
9.33333	1.34235	1.14953	43.0951
9.43434	1.34235	1.14953	42.8933
9.53535	1.34235	1.14953	42.6915
9.63636	1.34235	1.14953	42.4896
9.73737	1.34235	1.14953	42.2876
9.83838	1.34235	1.14953	42.0857
9.93939	1.34235	1.14953	41.8838
10.0404	1.34235	1.14953	41.6818
10.1414	1.34235	1.14953	41.4798
10.2424	1.34235	1.14953	41.2778
10.3434	1.34235	1.14953	41.0758
10.4444	1.34235	1.14953	40.8738
10.5455	1.34235	1.14953	40.6718
10.6465	1.34235	1.14953	40.4698
10.7475	1.34235	1.14953	40.2678
10.8485	1.34235	1.14953	40.0657
10.9495	1.34235	1.14953	39.8637
11.0505	1.34235	1.14953	39.6617
11.1515	1.34235	1.14953	39.4596
11.2525	1.34235	1.14953	39.2576
11.3535	1.34235	1.14953	39.0555
11.4545	1.34235	1.14953	38.8535
11.5556	1.34235	1.14953	38.6514
11.6566	1.34235	1.14953	38.4493
11.7576	1.34235	1.14953	38.2472
11.8586	1.34235	1.14953	38.0451
11.9596	1.34235	1.14953	37.8429
12.0606	1.34235	1.14953	37.6407
12.1616	1.34235	1.14953	37.4384
12.2626	1.34235	1.14953	37.2361
12.3636	1.34235	1.14953	37.0337
12.4646	1.34235	1.14953	36.8312
12.5657	1.34235	1.14953	36.6286
12.6667	1.34235	1.14953	36.4258
12.7677	1.34235	1.14953	36.2228
12.8687	1.34235	1.14953	36.0196
12.9697	1.34235	1.14953	35.816
13.0707	1.34235	1.14953	35.6121
13.1717	1.34235	1.14953	35.4076
13.2727	1.34235	1.14953	35.2025
13.3737	1.34235	1.14953	34.9966
13.4747	1.34235	1.14953	34.7897
13.5758	1.34235	1.14953	34.5815
13.6768	1.34235	1.14953	34.3717
13.7778	1.34235	1.14953	34.1598
13.8788	1.34235	1.14953	33.9454
13.9798	1.34235	1.14953	33.7277
14.0808	1.34235	1.14953	33.5059
14.1818	1.34235	1.14953	33.279
14.2828	1.34235	1.14953	33.0455
14.3838	1.34235	1.14953	32.8037
14.4848	1.34235	1.14953	32.5516
14.5859	1.34235	1.14953	32.2863
14.6869	1.34235	1.14953	32.0045
14.7879	1.34235	1.14953	31.7018
14.8889	1.34235	1.14953	31.3727
14.9899	1.34235	1.14953	31.0103
15.0909	1.34235	1.14953	30.606
15.1919	1.34235	1.14953	30.1486
15.2929	1.34235	1.14953	29.6244
15.3939	1.34235	1.14953	29.0159
15.4949	1.34235	1.14953	28.3009
15.596	1.34235	1.14953	27.4515
15.697	1.34235	1.14953	26.4327
15.798	1.34235	1.14953	25.1999
15.899	1.34235	1.14953	23.6973
16	1.34235	1.14953	21.8541
6	1.35662	1.17772	47.5545
6.10101	1.35662	1.17772	47.8031
6.20202	1.35662	1.17772	47.9582
6.30303	1.35662	1.17772	48.0392
6.40404	1.35662	1.17772	48.0614
6.50505	1.35662	1.17772	48.0371
6.60606	1.35662	1.17772	47.976
6.70707	1.35662	1.17772	47.8856
6.80808	1.35662	1.17772	47.772
6.90909	1.35662	1.17772	47.6401
7.0101	1.35662	1.17772	47.4936
7.11111	1.35662	1.17772	47.3356
7.21212	1.35662	1.17772	47.1685
7.31313	1.35662	1.17772	46.9941
7.41414	1.35662	1.17772	46.814
7.51515	1.35662	1.17772	46.6294
7.61616	1.35662	1.17772	46.4411
7.71717	1.35662	1.17772	46.25
7.81818	1.35662	1.17772	46.0566
7.91919	1.35662	1.17772	45.8614
8.0202	1.35662	1.17772	45.6648
8.12121	1.35662	1.17772	45.4671
8.22222	1.35662	1.17772	45.2685
8.32323	1.35662	1.17772	45.0692
8.42424	1.35662	1.17772	44.8693
8.52525	1.35662	1.17772	44.669
8.62626	1.35662	1.17772	44.4683
8.72727	1.35662	1.17772	44.2674
8.82828	1.35662	1.17772	44.0662
8.92929	1.35662	1.17772	43.8648
9.0303	1.35662	1.17772	43.6633
9.13131	1.35662	1.17772	43.4617
9.23232	1.35662	1.17772	43.2601
9.33333	1.35662	1.17772	43.0583
9.43434	1.35662	1.17772	42.8565
9.53535	1.35662	1.17772	42.6546
9.63636	1.35662	1.17772	42.4527
9.73737	1.35662	1.17772	42.2508
9.83838	1.35662	1.17772	42.0489
9.93939	1.35662	1.17772	41.8469
10.0404	1.35662	1.17772	41.645
10.1414	1.35662	1.17772	41.443
10.2424	1.35662	1.17772	41.241
10.3434	1.35662	1.17772	41.039
10.4444	1.35662	1.17772	40.837
10.5455	1.35662	1.17772	40.635
10.6465	1.35662	1.17772	40.433
10.7475	1.35662	1.17772	40.2309
10.8485	1.35662	1.17772	40.0289
10.9495	1.35662	1.17772	39.8269
11.0505	1.35662	1.17772	39.6249
11.1515	1.35662	1.17772	39.4228
11.2525	1.35662	1.17772	39.2208
11.3535	1.35662	1.17772	39.0187
11.4545	1.35662	1.17772	38.8167
11.5556	1.35662	1.17772	38.6146
11.6566	1.35662	1.17772	38.4125
11.7576	1.35662	1.17772	38.2104
11.8586	1.35662	1.17772	38.0082
11.9596	1.35662	1.17772	37.8061
12.0606	1.35662	1.17772	37.6039
12.1616	1.35662	1.17772	37.4016
12.2626	1.35662	1.17772	37.1993
12.3636	1.35662	1.17772	36.9969
12.4646	1.35662	1.17772	36.7944
12.5657	1.35662	1.17772	36.5918
12.6667	1.35662	1.17772	36.389
12.7677	1.35662	1.17772	36.186
12.8687	1.35662	1.17772	35.9828
12.9697	1.35662	1.17772	35.7792
13.0707	1.35662	1.17772	35.5753
13.1717	1.35662	1.17772	35.3708
13.2727	1.35662	1.17772	35.1657
13.3737	1.35662	1.17772	34.9598
13.4747	1.35662	1.17772	34.7529
13.5758	1.35662	1.17772	34.5447
13.6768	1.35662	1.17772	34.3349
13.7778	1.35662	1.17772	34.123
13.8788	1.35662	1.17772	33.9086
13.9798	1.35662	1.17772	33.6909
14.0808	1.35662	1.17772	33.4691
14.1818	1.35662	1.17772	33.2421
14.2828	1.35662	1.17772	33.0086
14.3838	1.35662	1.17772	32.7669
14.4848	1.35662	1.17772	32.5148
14.5859	1.35662	1.17772	32.2495
14.6869	1.35662	1.17772	31.9677
14.7879	1.35662	1.17772	31.665
14.8889	1.35662	1.17772	31.3359
14.9899	1.35662	1.17772	30.9735
15.0909	1.35662	1.17772	30.5691
15.1919	1.35662	1.17772	30.1118
15.2929	1.35662	1.17772	29.5876
15.3939	1.35662	1.17772	28.979
15.4949	1.35662	1.17772	28.264
15.596	1.35662	1.17772	27.4147
15.697	1.35662	1.17772	26.3958
15.798	1.35662	1.17772	25.1631
15.899	1.35662	1.17772	23.6605
16	1.35662	1.17772	21.8173
6	1.37088	1.20585	47.5177
6.10101	1.37088	1.20585	47.7663
6.20202	1.37088	1.20585	47.9214
6.30303	1.37088	1.20585	48.0023
6.40404	1.37088	1.20585	48.0246
6.50505	1.37088	1.20585	48.0003
6.60606	1.37088	1.20585	47.9391
6.70707	1.37088	1.20585	47.8487
6.80808	1.37088	1.20585	47.7352
6.90909	1.37088	1.20585	47.6033
7.0101	1.37088	1.20585	47.4568
7.11111	1.37088	1.20585	47.2988
7.21212	1.37088	1.20585	47.1317
7.31313	1.37088	1.20585	46.9573
7.41414	1.37088	1.20585	46.7772
7.51515	1.37088	1.20585	46.5925
7.61616	1.37088	1.20585	46.4043
7.71717	1.37088	1.20585	46.2132
7.81818	1.37088	1.20585	46.0198
7.91919	1.37088	1.20585	45.8246
8.0202	1.37088	1.20585	45.628
8.12121	1.37088	1.20585	45.4303
8.22222	1.37088	1.20585	45.2317
8.32323	1.37088	1.20585	45.0324
8.42424	1.37088	1.20585	44.8325
8.52525	1.37088	1.20585	44.6322
8.62626	1.37088	1.20585	44.4315
8.72727	1.37088	1.20585	44.2305
8.82828	1.37088	1.20585	44.0294
8.92929	1.37088	1.20585	43.828
9.0303	1.37088	1.20585	43.6265
9.13131	1.37088	1.20585	43.4249
9.23232	1.37088	1.20585	43.2232
9.33333	1.37088	1.20585	43.0215
9.43434	1.37088	1.20585	42.8197
9.53535	1.37088	1.20585	42.6178
9.63636	1.37088	1.20585	42.4159
9.73737	1.37088	1.20585	42.214
9.83838	1.37088	1.20585	42.0121
9.93939	1.37088	1.20585	41.8101
10.0404	1.37088	1.20585	41.6081
10.1414	1.37088	1.20585	41.4061
10.2424	1.37088	1.20585	41.2042
10.3434	1.37088	1.20585	41.0022
10.4444	1.37088	1.20585	40.8002
10.5455	1.37088	1.20585	40.5981
10.6465	1.37088	1.20585	40.3961
10.7475	1.37088	1.20585	40.1941
10.8485	1.37088	1.20585	39.9921
10.9495	1.37088	1.20585	39.7901
11.0505	1.37088	1.20585	39.588
11.1515	1.37088	1.20585	39.386
11.2525	1.37088	1.20585	39.1839
11.3535	1.37088	1.20585	38.9819
11.4545	1.37088	1.20585	38.7798
11.5556	1.37088	1.20585	38.5777
11.6566	1.37088	1.20585	38.3756
11.7576	1.37088	1.20585	38.1735
11.8586	1.37088	1.20585	37.9714
11.9596	1.37088	1.20585	37.7692
12.0606	1.37088	1.20585	37.567
12.1616	1.37088	1.20585	37.3648
12.2626	1.37088	1.20585	37.1624
12.3636	1.37088	1.20585	36.96
12.4646	1.37088	1.20585	36.7575
12.5657	1.37088	1.20585	36.5549
12.6667	1.37088	1.20585	36.3521
12.7677	1.37088	1.20585	36.1492
12.8687	1.37088	1.20585	35.9459
12.9697	1.37088	1.20585	35.7424
13.0707	1.37088	1.20585	35.5384
13.1717	1.37088	1.20585	35.334
13.2727	1.37088	1.20585	35.1289
13.3737	1.37088	1.20585	34.923
13.4747	1.37088	1.20585	34.7161
13.5758	1.37088	1.20585	34.5079
13.6768	1.37088	1.20585	34.298
13.7778	1.37088	1.20585	34.0862
13.8788	1.37088	1.20585	33.8717
13.9798	1.37088	1.20585	33.6541
14.0808	1.37088	1.20585	33.4323
14.1818	1.37088	1.20585	33.2053
14.2828	1.37088	1.20585	32.9718
14.3838	1.37088	1.20585	32.7301
14.4848	1.37088	1.20585	32.4779
14.5859	1.37088	1.20585	32.2127
14.6869	1.37088	1.20585	31.9308
14.7879	1.37088	1.20585	31.6281
14.8889	1.37088	1.20585	31.299
14.9899	1.37088	1.20585	30.9367
15.0909	1.37088	1.20585	30.5323
15.1919	1.37088	1.20585	30.075
15.2929	1.37088	1.20585	29.5508
15.3939	1.37088	1.20585	28.9422
15.4949	1.37088	1.20585	28.2272
15.596	1.37088	1.20585	27.3779
15.697	1.37088	1.20585	26.359
15.798	1.37088	1.20585	25.1263
15.899	1.37088	1.20585	23.6236
16	1.37088	1.20585	21.7804
6	1.38515	1.22949	47.4754
6.10101	1.38515	1.22949	47.724
6.20202	1.38515	1.22949	47.8791
6.30303	1.38515	1.22949	47.9601
6.40404	1.38515	1.22949	47.9824
6.50505	1.38515	1.22949	47.9581
6.60606	1.38515	1.22949	47.8969
6.70707	1.38515	1.22949	47.8065
6.80808	1.38515	1.22949	47.6929
6.90909	1.38515	1.22949	47.561
7.0101	1.38515	1.22949	47.4146
7.11111	1.38515	1.22949	47.2566
7.21212	1.38515	1.22949	47.0894
7.31313	1.38515	1.22949	46.9151
7.41414	1.38515	1.22949	46.735
7.51515	1.38515	1.22949	46.5503
7.61616	1.38515	1.22949	46.362
7.71717	1.38515	1.22949	46.1709
7.81818	1.38515	1.22949	45.9775
7.91919	1.38515	1.22949	45.7824
8.0202	1.38515	1.22949	45.5858
8.12121	1.38515	1.22949	45.3881
8.22222	1.38515	1.22949	45.1895
8.32323	1.38515	1.22949	44.9901
8.42424	1.38515	1.22949	44.7903
8.52525	1.38515	1.22949	44.5899
8.62626	1.38515	1.22949	44.3893
8.72727	1.38515	1.22949	44.1883
8.82828	1.38515	1.22949	43.9871
8.92929	1.38515	1.22949	43.7858
9.0303	1.38515	1.22949	43.5843
9.13131	1.38515	1.22949	43.3827
9.23232	1.38515	1.22949	43.181
9.33333	1.38515	1.22949	42.9792
9.43434	1.38515	1.22949	42.7774
9.53535	1.38515	1.22949	42.5756
9.63636	1.38515	1.22949	42.3737
9.73737	1.38515	1.22949	42.1718
9.83838	1.38515	1.22949	41.9698
9.93939	1.38515	1.22949	41.7679
10.0404	1.38515	1.22949	41.5659
10.1414	1.38515	1.22949	41.3639
10.2424	1.38515	1.22949	41.1619
10.3434	1.38515	1.22949	40.9599
10.4444	1.38515	1.22949	40.7579
10.5455	1.38515	1.22949	40.5559
10.6465	1.38515	1.22949	40.3539
10.7475	1.38515	1.22949	40.1519
10.8485	1.38515	1.22949	39.9499
10.9495	1.38515	1.22949	39.7478
11.0505	1.38515	1.22949	39.5458
11.1515	1.38515	1.22949	39.3438
11.2525	1.38515	1.22949	39.1417
11.3535	1.38515	1.22949	38.9397
11.4545	1.38515	1.22949	38.7376
11.5556	1.38515	1.22949	38.5355
11.6566	1.38515	1.22949	38.3334
11.7576	1.38515	1.22949	38.1313
11.8586	1.38515	1.22949	37.9292
11.9596	1.38515	1.22949	37.727
12.0606	1.38515	1.22949	37.5248
12.1616	1.38515	1.22949	37.3225
12.2626	1.38515	1.22949	37.1202
12.3636	1.38515	1.22949	36.9178
12.4646	1.38515	1.22949	36.7153
12.5657	1.38515	1.22949	36.5127
12.6667	1.38515	1.22949	36.3099
12.7677	1.38515	1.22949	36.1069
12.8687	1.38515	1.22949	35.9037
12.9697	1.38515	1.22949	35.7001
13.0707	1.38515	1.22949	35.4962
13.1717	1.38515	1.22949	35.2917
13.2727	1.38515	1.22949	35.0866
13.3737	1.38515	1.22949	34.8807
13.4747	1.38515	1.22949	34.6738
13.5758	1.38515	1.22949	34.4656
13.6768	1.38515	1.22949	34.2558
13.7778	1.38515	1.22949	34.0439
13.8788	1.38515	1.22949	33.8295
13.9798	1.38515	1.22949	33.6118
14.0808	1.38515	1.22949	33.39
14.1818	1.38515	1.22949	33.1631
14.2828	1.38515	1.22949	32.9296
14.3838	1.38515	1.22949	32.6878
14.4848	1.38515	1.22949	32.4357
14.5859	1.38515	1.22949	32.1704
14.6869	1.38515	1.22949	31.8886
14.7879	1.38515	1.22949	31.5859
14.8889	1.38515	1.22949	31.2568
14.9899	1.38515	1.22949	30.8944
15.0909	1.38515	1.22949	30.4901
15.1919	1.38515	1.22949	30.0327
15.2929	1.38515	1.22949	29.5085
15.3939	1.38515	1.22949	28.9
15.4949	1.38515	1.22949	28.185
15.596	1.38515	1.22949	27.3356
15.697	1.38515	1.22949	26.3168
15.798	1.38515	1.22949	25.084
15.899	1.38515	1.22949	23.5814
16	1.38515	1.22949	21.7382
6	1.39941	1.25773	47.4387
6.10101	1.39941	1.25773	47.6873
6.20202	1.39941	1.25773	47.8424
6.30303	1.39941	1.25773	47.9234
6.40404	1.39941	1.25773	47.9456
6.50505	1.39941	1.25773	47.9213
6.60606	1.39941	1.25773	47.8602
6.70707	1.39941	1.25773	47.7698
6.80808	1.39941	1.25773	47.6562
6.90909	1.39941	1.25773	47.5243
7.0101	1.39941	1.25773	47.3778
7.11111	1.39941	1.25773	47.2198
7.21212	1.39941	1.25773	47.0527
7.31313	1.39941	1.25773	46.8783
7.41414	1.39941	1.25773	46.6982
7.51515	1.39941	1.25773	46.5136
7.61616	1.39941	1.25773	46.3253
7.71717	1.39941	1.25773	46.1342
7.81818	1.39941	1.25773	45.9408
7.91919	1.39941	1.25773	45.7456
8.0202	1.39941	1.25773	45.5491
8.12121	1.39941	1.25773	45.3513
8.22222	1.39941	1.25773	45.1527
8.32323	1.39941	1.25773	44.9534
8.42424	1.39941	1.25773	44.7535
8.52525	1.39941	1.25773	44.5532
8.62626	1.39941	1.25773	44.3525
8.72727	1.39941	1.25773	44.1516
8.82828	1.39941	1.25773	43.9504
8.92929	1.39941	1.25773	43.749
9.0303	1.39941	1.25773	43.5476
9.13131	1.39941	1.25773	43.346
9.23232	1.39941	1.25773	43.1443
9.33333	1.39941	1.25773	42.9425
9.43434	1.39941	1.25773	42.7407
9.53535	1.39941	1.25773	42.5388
9.63636	1.39941	1.25773	42.337
9.73737	1.39941	1.25773	42.135
9.83838	1.39941	1.25773	41.9331
9.93939	1.39941	1.25773	41.7311
10.0404	1.39941	1.25773	41.5292
10.1414	1.39941	1.25773	41.3272
10.2424	1.39941	1.25773	41.1252
10.3434	1.39941	1.25773	40.9232
10.4444	1.39941	1.25773	40.7212
10.5455	1.39941	1.25773	40.5192
10.6465	1.39941	1.25773	40.3172
10.7475	1.39941	1.25773	40.1152
10.8485	1.39941	1.25773	39.9131
10.9495	1.39941	1.25773	39.7111
11.0505	1.39941	1.25773	39.5091
11.1515	1.39941	1.25773	39.307
11.2525	1.39941	1.25773	39.105
11.3535	1.39941	1.25773	38.9029
11.4545	1.39941	1.25773	38.7009
11.5556	1.39941	1.25773	38.4988
11.6566	1.39941	1.25773	38.2967
11.7576	1.39941	1.25773	38.0946
11.8586	1.39941	1.25773	37.8924
11.9596	1.39941	1.25773	37.6903
12.0606	1.39941	1.25773	37.4881
12.1616	1.39941	1.25773	37.2858
12.2626	1.39941	1.25773	37.0835
12.3636	1.39941	1.25773	36.8811
12.4646	1.39941	1.25773	36.6786
12.5657	1.39941	1.25773	36.476
12.6667	1.39941	1.25773	36.2732
12.7677	1.39941	1.25773	36.0702
12.8687	1.39941	1.25773	35.867
12.9697	1.39941	1.25773	35.6634
13.0707	1.39941	1.25773	35.4595
13.1717	1.39941	1.25773	35.255
13.2727	1.39941	1.25773	35.0499
13.3737	1.39941	1.25773	34.844
13.4747	1.39941	1.25773	34.6371
13.5758	1.39941	1.25773	34.4289
13.6768	1.39941	1.25773	34.2191
13.7778	1.39941	1.25773	34.0072
13.8788	1.39941	1.25773	33.7928
13.9798	1.39941	1.25773	33.5751
14.0808	1.39941	1.25773	33.3533
14.1818	1.39941	1.25773	33.1263
14.2828	1.39941	1.25773	32.8928
14.3838	1.39941	1.25773	32.6511
14.4848	1.39941	1.25773	32.399
14.5859	1.39941	1.25773	32.1337
14.6869	1.39941	1.25773	31.8519
14.7879	1.39941	1.25773	31.5492
14.8889	1.39941	1.25773	31.2201
14.9899	1.39941	1.25773	30.8577
15.0909	1.39941	1.25773	30.4533
15.1919	1.39941	1.25773	29.996
15.2929	1.39941	1.25773	29.4718
15.3939	1.39941	1.25773	28.8633
15.4949	1.39941	1.25773	28.1482
15.596	1.39941	1.25773	27.2989
15.697	1.39941	1.25773	26.2801
15.798	1.39941	1.25773	25.0473
15.899	1.39941	1.25773	23.5447
16	1.39941	1.25773	21.7015
6	1.41368	1.2861	47.402
6.10101	1.41368	1.2861	47.6506
6.20202	1.41368	1.2861	47.8057
6.30303	1.41368	1.2861	47.8867
6.40404	1.41368	1.2861	47.9089
6.50505	1.41368	1.2861	47.8846
6.60606	1.41368	1.2861	47.8235
6.70707	1.41368	1.2861	47.7331
6.80808	1.41368	1.2861	47.6195
6.90909	1.41368	1.2861	47.4876
7.0101	1.41368	1.2861	47.3411
7.11111	1.41368	1.2861	47.1831
7.21212	1.41368	1.2861	47.016
7.31313	1.41368	1.2861	46.8416
7.41414	1.41368	1.2861	46.6615
7.51515	1.41368	1.2861	46.4769
7.61616	1.41368	1.2861	46.2886
7.71717	1.41368	1.2861	46.0975
7.81818	1.41368	1.2861	45.9041
7.91919	1.41368	1.2861	45.7089
8.0202	1.41368	1.2861	45.5124
8.12121	1.41368	1.2861	45.3146
8.22222	1.41368	1.2861	45.116
8.32323	1.41368	1.2861	44.9167
8.42424	1.41368	1.2861	44.7168
8.52525	1.41368	1.2861	44.5165
8.62626	1.41368	1.2861	44.3158
8.72727	1.41368	1.2861	44.1149
8.82828	1.41368	1.2861	43.9137
8.92929	1.41368	1.2861	43.7123
9.0303	1.41368	1.2861	43.5109
9.13131	1.41368	1.2861	43.3093
9.23232	1.41368	1.2861	43.1076
9.33333	1.41368	1.2861	42.9058
9.43434	1.41368	1.2861	42.704
9.53535	1.41368	1.2861	42.5021
9.63636	1.41368	1.2861	42.3003
9.73737	1.41368	1.2861	42.0983
9.83838	1.41368	1.2861	41.8964
9.93939	1.41368	1.2861	41.6944
10.0404	1.41368	1.2861	41.4925
10.1414	1.41368	1.2861	41.2905
10.2424	1.41368	1.2861	41.0885
10.3434	1.41368	1.2861	40.8865
10.4444	1.41368	1.2861	40.6845
10.5455	1.41368	1.2861	40.4825
10.6465	1.41368	1.2861	40.2805
10.7475	1.41368	1.2861	40.0785
10.8485	1.41368	1.2861	39.8764
10.9495	1.41368	1.2861	39.6744
11.0505	1.41368	1.2861	39.4724
11.1515	1.41368	1.2861	39.2703
11.2525	1.41368	1.2861	39.0683
11.3535	1.41368	1.2861	38.8662
11.4545	1.41368	1.2861	38.6642
11.5556	1.41368	1.2861	38.4621
11.6566	1.41368	1.2861	38.26
11.7576	1.41368	1.2861	38.0579
11.8586	1.41368	1.2861	37.8557
11.9596	1.41368	1.2861	37.6536
12.0606	1.41368	1.2861	37.4514
12.1616	1.41368	1.2861	37.2491
12.2626	1.41368	1.2861	37.0468
12.3636	1.41368	1.2861	36.8444
12.4646	1.41368	1.2861	36.6419
12.5657	1.41368	1.2861	36.4393
12.6667	1.41368	1.2861	36.2365
12.7677	1.41368	1.2861	36.0335
12.8687	1.41368	1.2861	35.8303
12.9697	1.41368	1.2861	35.6267
13.0707	1.41368	1.2861	35.4228
13.1717	1.41368	1.2861	35.2183
13.2727	1.41368	1.2861	35.0132
13.3737	1.41368	1.2861	34.8073
13.4747	1.41368	1.2861	34.6004
13.5758	1.41368	1.2861	34.3922
13.6768	1.41368	1.2861	34.1824
13.7778	1.41368	1.2861	33.9705
13.8788	1.41368	1.2861	33.7561
13.9798	1.41368	1.2861	33.5384
14.0808	1.41368	1.2861	33.3166
14.1818	1.41368	1.2861	33.0896
14.2828	1.41368	1.2861	32.8562
14.3838	1.41368	1.2861	32.6144
14.4848	1.41368	1.2861	32.3623
14.5859	1.41368	1.2861	32.097
14.6869	1.41368	1.2861	31.8152
14.7879	1.41368	1.2861	31.5125
14.8889	1.41368	1.2861	31.1834
14.9899	1.41368	1.2861	30.821
15.0909	1.41368	1.2861	30.4166
15.1919	1.41368	1.2861	29.9593
15.2929	1.41368	1.2861	29.4351
15.3939	1.41368	1.2861	28.8266
15.4949	1.41368	1.2861	28.1115
15.596	1.41368	1.2861	27.2622
15.697	1.41368	1.2861	26.2434
15.798	1.41368	1.2861	25.0106
15.899	1.41368	1.2861	23.508
16	1.41368	1.2861	21.6648
6	1.42794	1.31022	47.3602
6.10101	1.42794	1.31022	47.6088
6.20202	1.42794	1.31022	47.7639
6.30303	1.42794	1.31022	47.8449
6.40404	1.42794	1.31022	47.8671
6.50505	1.42794	1.31022	47.8428
6.60606	1.42794	1.31022	47.7817
6.70707	1.42794	1.31022	47.6913
6.80808	1.42794	1.31022	47.5777
6.90909	1.42794	1.31022	47.4458
7.0101	1.42794	1.31022	47.2993
7.11111	1.42794	1.31022	47.1413
7.21212	1.42794	1.31022	46.9742
7.31313	1.42794	1.31022	46.7998
7.41414	1.42794	1.31022	46.6197
7.51515	1.42794	1.31022	46.4351
7.61616	1.42794	1.31022	46.2468
7.71717	1.42794	1.31022	46.0557
7.81818	1.42794	1.31022	45.8623
7.91919	1.42794	1.31022	45.6671
8.0202	1.42794	1.31022	45.4705
8.12121	1.42794	1.31022	45.2728
8.22222	1.42794	1.31022	45.0742
8.32323	1.42794	1.31022	44.8749
8.42424	1.42794	1.31022	44.675
8.52525	1.42794	1.31022	44.4747
8.62626	1.42794	1.31022	44.274
8.72727	1.42794	1.31022	44.0731
8.82828	1.42794	1.31022	43.8719
8.92929	1.42794	1.31022	43.6705
9.0303	1.42794	1.31022	43.469
9.13131	1.42794	1.31022	43.2674
9.23232	1.42794	1.31022	43.0658
9.33333	1.42794	1.31022	42.864
9.43434	1.42794	1.31022	42.6622
9.53535	1.42794	1.31022	42.4603
9.63636	1.42794	1.31022	42.2584
9.73737	1.42794	1.31022	42.0565
9.83838	1.42794	1.31022	41.8546
9.93939	1.42794	1.31022	41.6526
10.0404	1.42794	1.31022	41.4507
10.1414	1.42794	1.31022	41.2487
10.2424	1.42794	1.31022	41.0467
10.3434	1.42794	1.31022	40.8447
10.4444	1.42794	1.31022	40.6427
10.5455	1.42794	1.31022	40.4407
10.6465	1.42794	1.31022	40.2387
10.7475	1.42794	1.31022	40.0366
10.8485	1.42794	1.31022	39.8346
10.9495	1.42794	1.31022	39.6326
11.0505	1.42794	1.31022	39.4306
11.1515	1.42794	1.31022	39.2285
11.2525	1.42794	1.31022	39.0265
11.3535	1.42794	1.31022	38.8244
11.4545	1.42794	1.31022	38.6224
11.5556	1.42794	1.31022	38.4203
11.6566	1.42794	1.31022	38.2182
11.7576	1.42794	1.31022	38.0161
11.8586	1.42794	1.31022	37.8139
11.9596	1.42794	1.31022	37.6118
12.0606	1.42794	1.31022	37.4096
12.1616	1.42794	1.31022	37.2073
12.2626	1.42794	1.31022	37.005
12.3636	1.42794	1.31022	36.8026
12.4646	1.42794	1.31022	36.6001
12.5657	1.42794	1.31022	36.3975
12.6667	1.42794	1.31022	36.1947
12.7677	1.42794	1.31022	35.9917
12.8687	1.42794	1.31022	35.7885
12.9697	1.42794	1.31022	35.5849
13.0707	1.42794	1.31022	35.381
13.1717	1.42794	1.31022	35.1765
13.2727	1.42794	1.31022	34.9714
13.3737	1.42794	1.31022	34.7655
13.4747	1.42794	1.31022	34.5586
13.5758	1.42794	1.31022	34.3504
13.6768	1.42794	1.31022	34.1406
13.7778	1.42794	1.31022	33.9287
13.8788	1.42794	1.31022	33.7143
13.9798	1.42794	1.31022	33.4966
14.0808	1.42794	1.31022	33.2748
14.1818	1.42794	1.31022	33.0478
14.2828	1.42794	1.31022	32.8143
14.3838	1.42794	1.31022	32.5726
14.4848	1.42794	1.31022	32.3205
14.5859	1.42794	1.31022	32.0552
14.6869	1.42794	1.31022	31.7734
14.7879	1.42794	1.31022	31.4706
14.8889	1.42794	1.31022	31.1416
14.9899	1.42794	1.31022	30.7792
15.0909	1.42794	1.31022	30.3748
15.1919	1.42794	1.31022	29.9175
15.2929	1.42794	1.31022	29.3933
15.3939	1.42794	1.31022	28.7847
15.4949	1.42794	1.31022	28.0697
15.596	1.42794	1.31022	27.2204
15.697	1.42794	1.31022	26.2015
15.798	1.42794	1.31022	24.9688
15.899	1.42794	1.31022	23.4662
16	1.42794	1.31022	21.6229
6	1.44221	1.33906	47.3237
6.10101	1.44221	1.33906	47.5723
6.20202	1.44221	1.33906	47.7274
6.30303	1.44221	1.33906	47.8083
6.40404	1.44221	1.33906	47.8306
6.50505	1.44221	1.33906	47.8063
6.60606	1.44221	1.33906	47.7451
6.70707	1.44221	1.33906	47.6547
6.80808	1.44221	1.33906	47.5412
6.90909	1.44221	1.33906	47.4093
7.0101	1.44221	1.33906	47.2628
7.11111	1.44221	1.33906	47.1048
7.21212	1.44221	1.33906	46.9377
7.31313	1.44221	1.33906	46.7633
7.41414	1.44221	1.33906	46.5832
7.51515	1.44221	1.33906	46.3985
7.61616	1.44221	1.33906	46.2103
7.71717	1.44221	1.33906	46.0192
7.81818	1.44221	1.33906	45.8258
7.91919	1.44221	1.33906	45.6306
8.0202	1.44221	1.33906	45.434
8.12121	1.44221	1.33906	45.2363
8.22222	1.44221	1.33906	45.0377
8.32323	1.44221	1.33906	44.8384
8.42424	1.44221	1.33906	44.6385
8.52525	1.44221	1.33906	44.4382
8.62626	1.44221	1.33906	44.2375
8.72727	1.44221	1.33906	44.0365
8.82828	1.44221	1.33906	43.8354
8.92929	1.44221	1.33906	43.634
9.0303	1.44221	1.33906	43.4325
9.13131	1.44221	1.33906	43.2309
9.23232	1.44221	1.33906	43.0292
9.33333	1.44221	1.33906	42.8275
9.43434	1.44221	1.33906	42.6257
9.53535	1.44221	1.33906	42.4238
9.63636	1.44221	1.33906	42.2219
9.73737	1.44221	1.33906	42.02
9.83838	1.44221	1.33906	41.8181
9.93939	1.44221	1.33906	41.6161
10.0404	1.44221	1.33906	41.4141
10.1414	1.44221	1.33906	41.2122
10.2424	1.44221	1.33906	41.0102
10.3434	1.44221	1.33906	40.8082
10.4444	1.44221	1.33906	40.6062
10.5455	1.44221	1.33906	40.4042
10.6465	1.44221	1.33906	40.2021
10.7475	1.44221	1.33906	40.0001
10.8485	1.44221	1.33906	39.7981
10.9495	1.44221	1.33906	39.5961
11.0505	1.44221	1.33906	39.394
11.1515	1.44221	1.33906	39.192
11.2525	1.44221	1.33906	38.99
11.3535	1.44221	1.33906	38.7879
11.4545	1.44221	1.33906	38.5858
11.5556	1.44221	1.33906	38.3838
11.6566	1.44221	1.33906	38.1817
11.7576	1.44221	1.33906	37.9795
11.8586	1.44221	1.33906	37.7774
11.9596	1.44221	1.33906	37.5752
12.0606	1.44221	1.33906	37.373
12.1616	1.44221	1.33906	37.1708
12.2626	1.44221	1.33906	36.9685
12.3636	1.44221	1.33906	36.7661
12.4646	1.44221	1.33906	36.5636
12.5657	1.44221	1.33906	36.3609
12.6667	1.44221	1.33906	36.1582
12.7677	1.44221	1.33906	35.9552
12.8687	1.44221	1.33906	35.7519
12.9697	1.44221	1.33906	35.5484
13.0707	1.44221	1.33906	35.3444
13.1717	1.44221	1.33906	35.14
13.2727	1.44221	1.33906	34.9349
13.3737	1.44221	1.33906	34.729
13.4747	1.44221	1.33906	34.5221
13.5758	1.44221	1.33906	34.3139
13.6768	1.44221	1.33906	34.104
13.7778	1.44221	1.33906	33.8922
13.8788	1.44221	1.33906	33.6778
13.9798	1.44221	1.33906	33.4601
14.0808	1.44221	1.33906	33.2383
14.1818	1.44221	1.33906	33.0113
14.2828	1.44221	1.33906	32.7778
14.3838	1.44221	1.33906	32.5361
14.4848	1.44221	1.33906	32.2839
14.5859	1.44221	1.33906	32.0187
14.6869	1.44221	1.33906	31.7368
14.7879	1.44221	1.33906	31.4341
14.8889	1.44221	1.33906	31.105
14.9899	1.44221	1.33906	30.7427
15.0909	1.44221	1.33906	30.3383
15.1919	1.44221	1.33906	29.881
15.2929	1.44221	1.33906	29.3568
15.3939	1.44221	1.33906	28.7482
15.4949	1.44221	1.33906	28.0332
15.596	1.44221	1.33906	27.1839
15.697	1.44221	1.33906	26.165
15.798	1.44221	1.33906	24.9323
15.899	1.44221	1.33906	23.4296
16	1.44221	1.33906	21.5864
6	1.45647	1.36819	47.2872
6.10101	1.45647	1.36819	47.5358
6.20202	1.45647	1.36819	47.6909
6.30303	1.45647	1.36819	47.7719
6.40404	1.45647	1.36819	47.7941
6.50505	1.45647	1.36819	47.7699
6.60606	1.45647	1.36819	47.7087
6.70707	1.45647	1.36819	47.6183
6.80808	1.45647	1.36819	47.5047
6.90909	1.45647	1.36819	47.3728
7.0101	1.45647	1.36819	47.2263
7.11111	1.45647	1.36819	47.0683
7.21212	1.45647	1.36819	46.9012
7.31313	1.45647	1.36819	46.7268
7.41414	1.45647	1.36819	46.5467
7.51515	1.45647	1.36819	46.3621
7.61616	1.45647	1.36819	46.1738
7.71717	1.45647	1.36819	45.9827
7.81818	1.45647	1.36819	45.7893
7.91919	1.45647	1.36819	45.5942
8.0202	1.45647	1.36819	45.3976
8.12121	1.45647	1.36819	45.1999
8.22222	1.45647	1.36819	45.0012
8.32323	1.45647	1.36819	44.8019
8.42424	1.45647	1.36819	44.602
8.52525	1.45647	1.36819	44.4017
8.62626	1.45647	1.36819	44.201
8.72727	1.45647	1.36819	44.0001
8.82828	1.45647	1.36819	43.7989
8.92929	1.45647	1.36819	43.5976
9.0303	1.45647	1.36819	43.3961
9.13131	1.45647	1.36819	43.1945
9.23232	1.45647	1.36819	42.9928
9.33333	1.45647	1.36819	42.791
9.43434	1.45647	1.36819	42.5892
9.53535	1.45647	1.36819	42.3874
9.63636	1.45647	1.36819	42.1855
9.73737	1.45647	1.36819	41.9836
9.83838	1.45647	1.36819	41.7816
9.93939	1.45647	1.36819	41.5797
10.0404	1.45647	1.36819	41.3777
10.1414	1.45647	1.36819	41.1757
10.2424	1.45647	1.36819	40.9737
10.3434	1.45647	1.36819	40.7717
10.4444	1.45647	1.36819	40.5697
10.5455	1.45647	1.36819	40.3677
10.6465	1.45647	1.36819	40.1657
10.7475	1.45647	1.36819	39.9637
10.8485	1.45647	1.36819	39.7616
10.9495	1.45647	1.36819	39.5596
11.0505	1.45647	1.36819	39.3576
11.1515	1.45647	1.36819	39.1555
11.2525	1.45647	1.36819	38.9535
11.3535	1.45647	1.36819	38.7514
11.4545	1.45647	1.36819	38.5494
11.5556	1.45647	1.36819	38.3473
11.6566	1.45647	1.36819	38.1452
11.7576	1.45647	1.36819	37.9431
11.8586	1.45647	1.36819	37.741
11.9596	1.45647	1.36819	37.5388
12.0606	1.45647	1.36819	37.3366
12.1616	1.45647	1.36819	37.1343
12.2626	1.45647	1.36819	36.932
12.3636	1.45647	1.36819	36.7296
12.4646	1.45647	1.36819	36.5271
12.5657	1.45647	1.36819	36.3245
12.6667	1.45647	1.36819	36.1217
12.7677	1.45647	1.36819	35.9187
12.8687	1.45647	1.36819	35.7155
12.9697	1.45647	1.36819	35.5119
13.0707	1.45647	1.36819	35.308
13.1717	1.45647	1.36819	35.1035
13.2727	1.45647	1.36819	34.8984
13.3737	1.45647	1.36819	34.6925
13.4747	1.45647	1.36819	34.4856
13.5758	1.45647	1.36819	34.2774
13.6768	1.45647	1.36819	34.0676
13.7778	1.45647	1.36819	33.8557
13.8788	1.45647	1.36819	33.6413
13.9798	1.45647	1.36819	33.4236
14.0808	1.45647	1.36819	33.2018
14.1818	1.45647	1.36819	32.9749
14.2828	1.45647	1.36819	32.7414
14.3838	1.45647	1.36819	32.4996
14.4848	1.45647	1.36819	32.2475
14.5859	1.45647	1.36819	31.9822
14.6869	1.45647	1.36819	31.7004
14.7879	1.45647	1.36819	31.3977
14.8889	1.45647	1.36819	31.0686
14.9899	1.45647	1.36819	30.7062
15.0909	1.45647	1.36819	30.3019
15.1919	1.45647	1.36819	29.8445
15.2929	1.45647	1.36819	29.3203
15.3939	1.45647	1.36819	28.7118
15.4949	1.45647	1.36819	27.9968
15.596	1.45647	1.36819	27.1474
15.697	1.45647	1.36819	26.1286
15.798	1.45647	1.36819	24.8958
15.899	1.45647	1.36819	23.3932
16	1.45647	1.36819	21.55
6	1.47073	1.39327	47.2459
6.10101	1.47073	1.39327	47.4945
6.20202	1.47073	1.39327	47.6496
6.30303	1.47073	1.39327	47.7305
6.40404	1.47073	1.39327	47.7528
6.50505	1.47073	1.39327	47.7285
6.60606	1.47073	1.39327	47.6673
6.70707	1.47073	1.39327	47.5769
6.80808	1.47073	1.39327	47.4634
6.90909	1.47073	1.39327	47.3314
7.0101	1.47073	1.39327	47.185
7.11111	1.47073	1.39327	47.027
7.21212	1.47073	1.39327	46.8599
7.31313	1.47073	1.39327	46.6855
7.41414	1.47073	1.39327	46.5054
7.51515	1.47073	1.39327	46.3207
7.61616	1.47073	1.39327	46.1325
7.71717	1.47073	1.39327	45.9413
7.81818	1.47073	1.39327	45.748
7.91919	1.47073	1.39327	45.5528
8.0202	1.47073	1.39327	45.3562
8.12121	1.47073	1.39327	45.1585
8.22222	1.47073	1.39327	44.9599
8.32323	1.47073	1.39327	44.7606
8.42424	1.47073	1.39327	44.5607
8.52525	1.47073	1.39327	44.3604
8.62626	1.47073	1.39327	44.1597
8.72727	1.47073	1.39327	43.9587
8.82828	1.47073	1.39327	43.7575
8.92929	1.47073	1.39327	43.5562
9.0303	1.47073	1.39327	43.3547
9.13131	1.47073	1.39327	43.1531
9.23232	1.47073	1.39327	42.9514
9.33333	1.47073	1.39327	42.7497
9.43434	1.47073	1.39327	42.5479
9.53535	1.47073	1.39327	42.346
9.63636	1.47073	1.39327	42.1441
9.73737	1.47073	1.39327	41.9422
9.83838	1.47073	1.39327	41.7403
9.93939	1.47073	1.39327	41.5383
10.0404	1.47073	1.39327	41.3363
10.1414	1.47073	1.39327	41.1343
10.2424	1.47073	1.39327	40.9324
10.3434	1.47073	1.39327	40.7304
10.4444	1.47073	1.39327	40.5283
10.5455	1.47073	1.39327	40.3263
10.6465	1.47073	1.39327	40.1243
10.7475	1.47073	1.39327	39.9223
10.8485	1.47073	1.39327	39.7203
10.9495	1.47073	1.39327	39.5183
11.0505	1.47073	1.39327	39.3162
11.1515	1.47073	1.39327	39.1142
11.2525	1.47073	1.39327	38.9121
11.3535	1.47073	1.39327	38.7101
11.4545	1.47073	1.39327	38.508
11.5556	1.47073	1.39327	38.3059
11.6566	1.47073	1.39327	38.1038
11.7576	1.47073	1.39327	37.9017
11.8586	1.47073	1.39327	37.6996
11.9596	1.47073	1.39327	37.4974
12.0606	1.47073	1.39327	37.2952
12.1616	1.47073	1.39327	37.093
12.2626	1.47073	1.39327	36.8906
12.3636	1.47073	1.39327	36.6882
12.4646	1.47073	1.39327	36.4857
12.5657	1.47073	1.39327	36.2831
12.6667	1.47073	1.39327	36.0803
12.7677	1.47073	1.39327	35.8774
12.8687	1.47073	1.39327	35.6741
12.9697	1.47073	1.39327	35.4706
13.0707	1.47073	1.39327	35.2666
13.1717	1.47073	1.39327	35.0622
13.2727	1.47073	1.39327	34.8571
13.3737	1.47073	1.39327	34.6512
13.4747	1.47073	1.39327	34.4442
13.5758	1.47073	1.39327	34.236
13.6768	1.47073	1.39327	34.0262
13.7778	1.47073	1.39327	33.8144
13.8788	1.47073	1.39327	33.5999
13.9798	1.47073	1.39327	33.3822
14.0808	1.47073	1.39327	33.1605
14.1818	1.47073	1.39327	32.9335
14.2828	1.47073	1.39327	32.7
14.3838	1.47073	1.39327	32.4583
14.4848	1.47073	1.39327	32.2061
14.5859	1.47073	1.39327	31.9409
14.6869	1.47073	1.39327	31.659
14.7879	1.47073	1.39327	31.3563
14.8889	1.47073	1.39327	31.0272
14.9899	1.47073	1.39327	30.6648
15.0909	1.47073	1.39327	30.2605
15.1919	1.47073	1.39327	29.8032
15.2929	1.47073	1.39327	29.279
15.3939	1.47073	1.39327	28.6704
15.4949	1.47073	1.39327	27.9554
15.596	1.47073	1.39327	27.1061
15.697	1.47073	1.39327	26.0872
15.798	1.47073	1.39327	24.8545
15.899	1.47073	1.39327	23.3518
16	1.47073	1.39327	21.5086
6	1.485	1.42754	47.2145
6.10101	1.485	1.42754	47.4631
6.20202	1.485	1.42754	47.6182
6.30303	1.485	1.42754	47.6992
6.40404	1.485	1.42754	47.7214
6.50505	1.485	1.42754	47.6972
6.60606	1.485	1.42754	47.636
6.70707	1.485	1.42754	47.5456
6.80808	1.485	1.42754	47.432
6.90909	1.485	1.42754	47.3001
7.0101	1.485	1.42754	47.1536
7.11111	1.485	1.42754	46.9956
7.21212	1.485	1.42754	46.8285
7.31313	1.485	1.42754	46.6541
7.41414	1.485	1.42754	46.474
7.51515	1.485	1.42754	46.2894
7.61616	1.485	1.42754	46.1011
7.71717	1.485	1.42754	45.91
7.81818	1.485	1.42754	45.7166
7.91919	1.485	1.42754	45.5215
8.0202	1.485	1.42754	45.3249
8.12121	1.485	1.42754	45.1271
8.22222	1.485	1.42754	44.9285
8.32323	1.485	1.42754	44.7292
8.42424	1.485	1.42754	44.5293
8.52525	1.485	1.42754	44.329
8.62626	1.485	1.42754	44.1283
8.72727	1.485	1.42754	43.9274
8.82828	1.485	1.42754	43.7262
8.92929	1.485	1.42754	43.5249
9.0303	1.485	1.42754	43.3234
9.13131	1.485	1.42754	43.1218
9.23232	1.485	1.42754	42.9201
9.33333	1.485	1.42754	42.7183
9.43434	1.485	1.42754	42.5165
9.53535	1.485	1.42754	42.3147
9.63636	1.485	1.42754	42.1128
9.73737	1.485	1.42754	41.9108
9.83838	1.485	1.42754	41.7089
9.93939	1.485	1.42754	41.507
10.0404	1.485	1.42754	41.305
10.1414	1.485	1.42754	41.103
10.2424	1.485	1.42754	40.901
10.3434	1.485	1.42754	40.699
10.4444	1.485	1.42754	40.497
10.5455	1.485	1.42754	40.295
10.6465	1.485	1.42754	40.093
10.7475	1.485	1.42754	39.891
10.8485	1.485	1.42754	39.6889
10.9495	1.485	1.42754	39.4869
11.0505	1.485	1.42754	39.2849
11.1515	1.485	1.42754	39.0828
11.2525	1.485	1.42754	38.8808
11.3535	1.485	1.42754	38.6787
11.4545	1.485	1.42754	38.4767
11.5556	1.485	1.42754	38.2746
11.6566	1.485	1.42754	38.0725
11.7576	1.485	1.42754	37.8704
11.8586	1.485	1.42754	37.6683
11.9596	1.485	1.42754	37.4661
12.0606	1.485	1.42754	37.2639
12.1616	1.485	1.42754	37.0616
12.2626	1.485	1.42754	36.8593
12.3636	1.485	1.42754	36.6569
12.4646	1.485	1.42754	36.4544
12.5657	1.485	1.42754	36.2518
12.6667	1.485	1.42754	36.049
12.7677	1.485	1.42754	35.846
12.8687	1.485	1.42754	35.6428
12.9697	1.485	1.42754	35.4392
13.0707	1.485	1.42754	35.2353
13.1717	1.485	1.42754	35.0308
13.2727	1.485	1.42754	34.8257
13.3737	1.485	1.42754	34.6198
13.4747	1.485	1.42754	34.4129
13.5758	1.485	1.42754	34.2047
13.6768	1.485	1.42754	33.9949
13.7778	1.485	1.42754	33.783
13.8788	1.485	1.42754	33.5686
13.9798	1.485	1.42754	33.3509
14.0808	1.485	1.42754	33.1291
14.1818	1.485	1.42754	32.9022
14.2828	1.485	1.42754	32.6687
14.3838	1.485	1.42754	32.4269
14.4848	1.485	1.42754	32.1748
14.5859	1.485	1.42754	31.9095
14.6869	1.485	1.42754	31.6277
14.7879	1.485	1.42754	31.325
14.8889	1.485	1.42754	30.9959
14.9899	1.485	1.42754	30.6335
15.0909	1.485	1.42754	30.2292
15.1919	1.485	1.42754	29.7718
15.2929	1.485	1.42754	29.2476
15.3939	1.485	1.42754	28.6391
15.4949	1.485	1.42754	27.9241
15.596	1.485	1.42754	27.0747
15.697	1.485	1.42754	26.0559
15.798	1.485	1.42754	24.8231
15.899	1.485	1.42754	23.3205
16	1.485	1.42754	21.4773
6	1.49926	1.44911	47.1686
6.10101	1.49926	1.44911	47.4172
6.20202	1.49926	1.44911	47.5722
6.30303	1.49926	1.44911	47.6532
6.40404	1.49926	1.44911	47.6755
6.50505	1.49926	1.44911	47.6512
6.60606	1.49926	1.44911	47.59
6.70707	1.49926	1.44911	47.4996
6.80808	1.49926	1.44911	47.3861
6.90909	1.49926	1.44911	47.2541
7.0101	1.49926	1.44911	47.1077
7.11111	1.49926	1.44911	46.9497
7.21212	1.49926	1.44911	46.7825
7.31313	1.49926	1.44911	46.6082
7.41414	1.49926	1.44911	46.4281
7.51515	1.49926	1.44911	46.2434
7.61616	1.49926	1.44911	46.0552
7.71717	1.49926	1.44911	45.864
7.81818	1.49926	1.44911	45.6707
7.91919	1.49926	1.44911	45.4755
8.0202	1.49926	1.44911	45.2789
8.12121	1.49926	1.44911	45.0812
8.22222	1.49926	1.44911	44.8826
8.32323	1.49926	1.44911	44.6832
8.42424	1.49926	1.44911	44.4834
8.52525	1.49926	1.44911	44.283
8.62626	1.49926	1.44911	44.0824
8.72727	1.49926	1.44911	43.8814
8.82828	1.49926	1.44911	43.6802
8.92929	1.49926	1.44911	43.4789
9.0303	1.49926	1.44911	43.2774
9.13131	1.49926	1.44911	43.0758
9.23232	1.49926	1.44911	42.8741
9.33333	1.49926	1.44911	42.6724
9.43434	1.49926	1.44911	42.4705
9.53535	1.49926	1.44911	42.2687
9.63636	1.49926	1.44911	42.0668
9.73737	1.49926	1.44911	41.8649
9.83838	1.49926	1.44911	41.6629
9.93939	1.49926	1.44911	41.461
10.0404	1.49926	1.44911	41.259
10.1414	1.49926	1.44911	41.057
10.2424	1.49926	1.44911	40.855
10.3434	1.49926	1.44911	40.653
10.4444	1.49926	1.44911	40.451
10.5455	1.49926	1.44911	40.249
10.6465	1.49926	1.44911	40.047
10.7475	1.49926	1.44911	39.845
10.8485	1.49926	1.44911	39.643
10.9495	1.49926	1.44911	39.4409
11.0505	1.49926	1.44911	39.2389
11.1515	1.49926	1.44911	39.0369
11.2525	1.49926	1.44911	38.8348
11.3535	1.49926	1.44911	38.6328
11.4545	1.49926	1.44911	38.4307
11.5556	1.49926	1.44911	38.2286
11.6566	1.49926	1.44911	38.0265
11.7576	1.49926	1.44911	37.8244
11.8586	1.49926	1.44911	37.6223
11.9596	1.49926	1.44911	37.4201
12.0606	1.49926	1.44911	37.2179
12.1616	1.49926	1.44911	37.0156
12.2626	1.49926	1.44911	36.8133
12.3636	1.49926	1.44911	36.6109
12.4646	1.49926	1.44911	36.4084
12.5657	1.49926	1.44911	36.2058
12.6667	1.49926	1.44911	36.003
12.7677	1.49926	1.44911	35.8
12.8687	1.49926	1.44911	35.5968
12.9697	1.49926	1.44911	35.3933
13.0707	1.49926	1.44911	35.1893
13.1717	1.49926	1.44911	34.9848
13.2727	1.49926	1.44911	34.7798
13.3737	1.49926	1.44911	34.5739
13.4747	1.49926	1.44911	34.3669
13.5758	1.49926	1.44911	34.1587
13.6768	1.49926	1.44911	33.9489
13.7778	1.49926	1.44911	33.7371
13.8788	1.49926	1.44911	33.5226
13.9798	1.49926	1.44911	33.3049
14.0808	1.49926	1.44911	33.0831
14.1818	1.49926	1.44911	32.8562
14.2828	1.49926	1.44911	32.6227
14.3838	1.49926	1.44911	32.3809
14.4848	1.49926	1.44911	32.1288
14.5859	1.49926	1.44911	31.8635
14.6869	1.49926	1.44911	31.5817
14.7879	1.49926	1.44911	31.279
14.8889	1.49926	1.44911	30.9499
14.9899	1.49926	1.44911	30.5875
15.0909	1.49926	1.44911	30.1832
15.1919	1.49926	1.44911	29.7258
15.2929	1.49926	1.44911	29.2017
15.3939	1.49926	1.44911	28.5931
15.4949	1.49926	1.44911	27.8781
15.596	1.49926	1.44911	27.0287
15.697	1.49926	1.44911	26.0099
15.798	1.49926	1.44911	24.7772
15.899	1.49926	1.44911	23.2745
16	1.49926	1.44911	21.4313
6	1.51353	1.48426	47.1373
6.10101	1.51353	1.48426	47.3859
6.20202	1.51353	1.48426	47.541
6.30303	1.51353	1.48426	47.622
6.40404	1.51353	1.48426	47.6442
6.50505	1.51353	1.48426	47.6199
6.60606	1.51353	1.48426	47.5587
6.70707	1.51353	1.48426	47.4684
6.80808	1.51353	1.48426	47.3548
6.90909	1.51353	1.48426	47.2229
7.0101	1.51353	1.48426	47.0764
7.11111	1.51353	1.48426	46.9184
7.21212	1.51353	1.48426	46.7513
7.31313	1.51353	1.48426	46.5769
7.41414	1.51353	1.48426	46.3968
7.51515	1.51353	1.48426	46.2121
7.61616	1.51353	1.48426	46.0239
7.71717	1.51353	1.48426	45.8328
7.81818	1.51353	1.48426	45.6394
7.91919	1.51353	1.48426	45.4442
8.0202	1.51353	1.48426	45.2476
8.12121	1.51353	1.48426	45.0499
8.22222	1.51353	1.48426	44.8513
8.32323	1.51353	1.48426	44.652
8.42424	1.51353	1.48426	44.4521
8.52525	1.51353	1.48426	44.2518
8.62626	1.51353	1.48426	44.0511
8.72727	1.51353	1.48426	43.8501
8.82828	1.51353	1.48426	43.649
8.92929	1.51353	1.48426	43.4476
9.0303	1.51353	1.48426	43.2461
9.13131	1.51353	1.48426	43.0445
9.23232	1.51353	1.48426	42.8428
9.33333	1.51353	1.48426	42.6411
9.43434	1.51353	1.48426	42.4393
9.53535	1.51353	1.48426	42.2374
9.63636	1.51353	1.48426	42.0355
9.73737	1.51353	1.48426	41.8336
9.83838	1.51353	1.48426	41.6317
9.93939	1.51353	1.48426	41.4297
10.0404	1.51353	1.48426	41.2277
10.1414	1.51353	1.48426	41.0258
10.2424	1.51353	1.48426	40.8238
10.3434	1.51353	1.48426	40.6218
10.4444	1.51353	1.48426	40.4198
10.5455	1.51353	1.48426	40.2178
10.6465	1.51353	1.48426	40.0157
10.7475	1.51353	1.48426	39.8137
10.8485	1.51353	1.48426	39.6117
10.9495	1.51353	1.48426	39.4097
11.0505	1.51353	1.48426	39.2076
11.1515	1.51353	1.48426	39.0056
11.2525	1.51353	1.48426	38.8036
11.3535	1.51353	1.48426	38.6015
11.4545	1.51353	1.48426	38.3994
11.5556	1.51353	1.48426	38.1974
11.6566	1.51353	1.48426	37.9953
11.7576	1.51353	1.48426	37.7932
11.8586	1.51353	1.48426	37.591
11.9596	1.51353	1.48426	37.3888
12.0606	1.51353	1.48426	37.1866
12.1616	1.51353	1.48426	36.9844
12.2626	1.51353	1.48426	36.7821
12.3636	1.51353	1.48426	36.5797
12.4646	1.51353	1.48426	36.3772
12.5657	1.51353	1.48426	36.1745
12.6667	1.51353	1.48426	35.9718
12.7677	1.51353	1.48426	35.7688
12.8687	1.51353	1.48426	35.5655
12.9697	1.51353	1.48426	35.362
13.0707	1.51353	1.48426	35.158
13.1717	1.51353	1.48426	34.9536
13.2727	1.51353	1.48426	34.7485
13.3737	1.51353	1.48426	34.5426
13.4747	1.51353	1.48426	34.3357
13.5758	1.51353	1.48426	34.1275
13.6768	1.51353	1.48426	33.9177
13.7778	1.51353	1.48426	33.7058
13.8788	1.51353	1.48426	33.4914
13.9798	1.51353	1.48426	33.2737
14.0808	1.51353	1.48426	33.0519
14.1818	1.51353	1.48426	32.8249
14.2828	1.51353	1.48426	32.5914
14.3838	1.51353	1.48426	32.3497
14.4848	1.51353	1.48426	32.0975
14.5859	1.51353	1.48426	31.8323
14.6869	1.51353	1.48426	31.5505
14.7879	1.51353	1.48426	31.2477
14.8889	1.51353	1.48426	30.9186
14.9899	1.51353	1.48426	30.5563
15.0909	1.51353	1.48426	30.1519
15.1919	1.51353	1.48426	29.6946
15.2929	1.51353	1.48426	29.1704
15.3939	1.51353	1.48426	28.5618
15.4949	1.51353	1.48426	27.8468
15.596	1.51353	1.48426	26.9975
15.697	1.51353	1.48426	25.9786
15.798	1.51353	1.48426	24.7459
15.899	1.51353	1.48426	23.2432
16	1.51353	1.48426	21.4
6	1.52779	1.51123	47.0965
6.10101	1.52779	1.51123	47.3451
6.20202	1.52779	1.51123	47.5002
6.30303	1.52779	1.51123	47.5811
6.40404	1.52779	1.51123	47.6034
6.50505	1.52779	1.51123	47.5791
6.60606	1.52779	1.51123	47.5179
6.70707	1.52779	1.51123	47.4275
6.80808	1.52779	1.51123	47.314
6.90909	1.52779	1.51123	47.182
7.0101	1.52779	1.51123	47.0356
7.11111	1.52779	1.51123	46.8776
7.21212	1.52779	1.51123	46.7105
7.31313	1.52779	1.51123	46.5361
7.41414	1.52779	1.51123	46.356
7.51515	1.52779	1.51123	46.1713
7.61616	1.52779	1.51123	45.9831
7.71717	1.52779	1.51123	45.792
7.81818	1.52779	1.51123	45.5986
7.91919	1.52779	1.51123	45.4034
8.0202	1.52779	1.51123	45.2068
8.12121	1.52779	1.51123	45.0091
8.22222	1.52779	1.51123	44.8105
8.32323	1.52779	1.51123	44.6112
8.42424	1.52779	1.51123	44.4113
8.52525	1.52779	1.51123	44.211
8.62626	1.52779	1.51123	44.0103
8.72727	1.52779	1.51123	43.8093
8.82828	1.52779	1.51123	43.6082
8.92929	1.52779	1.51123	43.4068
9.0303	1.52779	1.51123	43.2053
9.13131	1.52779	1.51123	43.0037
9.23232	1.52779	1.51123	42.802
9.33333	1.52779	1.51123	42.6003
9.43434	1.52779	1.51123	42.3985
9.53535	1.52779	1.51123	42.1966
9.63636	1.52779	1.51123	41.9947
9.73737	1.52779	1.51123	41.7928
9.83838	1.52779	1.51123	41.5909
9.93939	1.52779	1.51123	41.3889
10.0404	1.52779	1.51123	41.1869
10.1414	1.52779	1.51123	40.9849
10.2424	1.52779	1.51123	40.783
10.3434	1.52779	1.51123	40.581
10.4444	1.52779	1.51123	40.379
10.5455	1.52779	1.51123	40.1769
10.6465	1.52779	1.51123	39.9749
10.7475	1.52779	1.51123	39.7729
10.8485	1.52779	1.51123	39.5709
10.9495	1.52779	1.51123	39.3689
11.0505	1.52779	1.51123	39.1668
11.1515	1.52779	1.51123	38.9648
11.2525	1.52779	1.51123	38.7627
11.3535	1.52779	1.51123	38.5607
11.4545	1.52779	1.51123	38.3586
11.5556	1.52779	1.51123	38.1565
11.6566	1.52779	1.51123	37.9544
11.7576	1.52779	1.51123	37.7523
11.8586	1.52779	1.51123	37.5502
11.9596	1.52779	1.51123	37.348
12.0606	1.52779	1.51123	37.1458
12.1616	1.52779	1.51123	36.9436
12.2626	1.52779	1.51123	36.7412
12.3636	1.52779	1.51123	36.5388
12.4646	1.52779	1.51123	36.3363
12.5657	1.52779	1.51123	36.1337
12.6667	1.52779	1.51123	35.9309
12.7677	1.52779	1.51123	35.728
12.8687	1.52779	1.51123	35.5247
12.9697	1.52779	1.51123	35.3212
13.0707	1.52779	1.51123	35.1172
13.1717	1.52779	1.51123	34.9128
13.2727	1.52779	1.51123	34.7077
13.3737	1.52779	1.51123	34.5018
13.4747	1.52779	1.51123	34.2948
13.5758	1.52779	1.51123	34.0866
13.6768	1.52779	1.51123	33.8768
13.7778	1.52779	1.51123	33.665
13.8788	1.52779	1.51123	33.4505
13.9798	1.52779	1.51123	33.2329
14.0808	1.52779	1.51123	33.0111
14.1818	1.52779	1.51123	32.7841
14.2828	1.52779	1.51123	32.5506
14.3838	1.52779	1.51123	32.3089
14.4848	1.52779	1.51123	32.0567
14.5859	1.52779	1.51123	31.7915
14.6869	1.52779	1.51123	31.5096
14.7879	1.52779	1.51123	31.2069
14.8889	1.52779	1.51123	30.8778
14.9899	1.52779	1.51123	30.5155
15.0909	1.52779	1.51123	30.1111
15.1919	1.52779	1.51123	29.6538
15.2929	1.52779	1.51123	29.1296
15.3939	1.52779	1.51123	28.521
15.4949	1.52779	1.51123	27.806
15.596	1.52779	1.51123	26.9567
15.697	1.52779	1.51123	25.9378
15.798	1.52779	1.51123	24.7051
15.899	1.52779	1.51123	23.2024
16	1.52779	1.51123	21.3592
6	1.54206	1.5431	47.0605
6.10101	1.54206	1.5431	47.3091
6.20202	1.54206	1.5431	47.4642
6.30303	1.54206	1.5431	47.5452
6.40404	1.54206	1.5431	47.5674
6.50505	1.54206	1.5431	47.5431
6.60606	1.54206	1.5431	47.482
6.70707	1.54206	1.5431	47.3916
6.80808	1.54206	1.5431	47.278
6.90909	1.54206	1.5431	47.1461
7.0101	1.54206	1.5431	46.9996
7.11111	1.54206	1.5431	46.8416
7.21212	1.54206	1.5431	46.6745
7.31313	1.54206	1.5431	46.5001
7.41414	1.54206	1.5431	46.32
7.51515	1.54206	1.5431	46.1354
7.61616	1.54206	1.5431	45.9471
7.71717	1.54206	1.5431	45.756
7.81818	1.54206	1.5431	45.5626
7.91919	1.54206	1.5431	45.3674
8.0202	1.54206	1.5431	45.1709
8.12121	1.54206	1.5431	44.9731
8.22222	1.54206	1.5431	44.7745
8.32323	1.54206	1.5431	44.5752
8.42424	1.54206	1.5431	44.3753
8.52525	1.54206	1.5431	44.175
8.62626	1.54206	1.5431	43.9743
8.72727	1.54206	1.5431	43.7734
8.82828	1.54206	1.5431	43.5722
8.92929	1.54206	1.5431	43.3708
9.0303	1.54206	1.5431	43.1694
9.13131	1.54206	1.5431	42.9678
9.23232	1.54206	1.5431	42.7661
9.33333	1.54206	1.5431	42.5643
9.43434	1.54206	1.5431	42.3625
9.53535	1.54206	1.5431	42.1606
9.63636	1.54206	1.5431	41.9588
9.73737	1.54206	1.5431	41.7568
9.83838	1.54206	1.5431	41.5549
9.93939	1.54206	1.5431	41.3529
10.0404	1.54206	1.5431	41.151
10.1414	1.54206	1.5431	40.949
10.2424	1.54206	1.5431	40.747
10.3434	1.54206	1.5431	40.545
10.4444	1.54206	1.5431	40.343
10.5455	1.54206	1.5431	40.141
10.6465	1.54206	1.5431	39.939
10.7475	1.54206	1.5431	39.737
10.8485	1.54206	1.5431	39.5349
10.9495	1.54206	1.5431	39.3329
11.0505	1.54206	1.5431	39.1309
11.1515	1.54206	1.5431	38.9288
11.2525	1.54206	1.5431	38.7268
11.3535	1.54206	1.5431	38.5247
11.4545	1.54206	1.5431	38.3227
11.5556	1.54206	1.5431	38.1206
11.6566	1.54206	1.5431	37.9185
11.7576	1.54206	1.5431	37.7164
11.8586	1.54206	1.5431	37.5142
11.9596	1.54206	1.5431	37.3121
12.0606	1.54206	1.5431	37.1099
12.1616	1.54206	1.5431	36.9076
12.2626	1.54206	1.5431	36.7053
12.3636	1.54206	1.5431	36.5029
12.4646	1.54206	1.5431	36.3004
12.5657	1.54206	1.5431	36.0978
12.6667	1.54206	1.5431	35.895
12.7677	1.54206	1.5431	35.692
12.8687	1.54206	1.5431	35.4888
12.9697	1.54206	1.5431	35.2852
13.0707	1.54206	1.5431	35.0813
13.1717	1.54206	1.5431	34.8768
13.2727	1.54206	1.5431	34.6717
13.3737	1.54206	1.5431	34.4658
13.4747	1.54206	1.5431	34.2589
13.5758	1.54206	1.5431	34.0507
13.6768	1.54206	1.5431	33.8409
13.7778	1.54206	1.5431	33.629
13.8788	1.54206	1.5431	33.4146
13.9798	1.54206	1.5431	33.1969
14.0808	1.54206	1.5431	32.9751
14.1818	1.54206	1.5431	32.7481
14.2828	1.54206	1.5431	32.5146
14.3838	1.54206	1.5431	32.2729
14.4848	1.54206	1.5431	32.0208
14.5859	1.54206	1.5431	31.7555
14.6869	1.54206	1.5431	31.4737
14.7879	1.54206	1.5431	31.171
14.8889	1.54206	1.5431	30.8419
14.9899	1.54206	1.5431	30.4795
15.0909	1.54206	1.5431	30.0751
15.1919	1.54206	1.5431	29.6178
15.2929	1.54206	1.5431	29.0936
15.3939	1.54206	1.5431	28.4851
15.4949	1.54206	1.5431	27.77
15.596	1.54206	1.5431	26.9207
15.697	1.54206	1.5431	25.9019
15.798	1.54206	1.5431	24.6691
15.899	1.54206	1.5431	23.1665
16	1.54206	1.5431	21.3233
6	1.55632	1.57127	47.0199
6.10101	1.55632	1.57127	47.2685
6.20202	1.55632	1.57127	47.4236
6.30303	1.55632	1.57127	47.5046
6.40404	1.55632	1.57127	47.5269
6.50505	1.55632	1.57127	47.5026
6.60606	1.55632	1.57127	47.4414
6.70707	1.55632	1.57127	47.351
6.80808	1.55632	1.57127	47.2374
6.90909	1.55632	1.57127	47.1055
7.0101	1.55632	1.57127	46.9591
7.11111	1.55632	1.57127	46.8011
7.21212	1.55632	1.57127	46.6339
7.31313	1.55632	1.57127	46.4596
7.41414	1.55632	1.57127	46.2795
7.51515	1.55632	1.57127	46.0948
7.61616	1.55632	1.57127	45.9065
7.71717	1.55632	1.57127	45.7154
7.81818	1.55632	1.57127	45.522
7.91919	1.55632	1.57127	45.3269
8.0202	1.55632	1.57127	45.1303
8.12121	1.55632	1.57127	44.9326
8.22222	1.55632	1.57127	44.734
8.32323	1.55632	1.57127	44.5346
8.42424	1.55632	1.57127	44.3348
8.52525	1.55632	1.57127	44.1344
8.62626	1.55632	1.57127	43.9338
8.72727	1.55632	1.57127	43.7328
8.82828	1.55632	1.57127	43.5316
8.92929	1.55632	1.57127	43.3303
9.0303	1.55632	1.57127	43.1288
9.13131	1.55632	1.57127	42.9272
9.23232	1.55632	1.57127	42.7255
9.33333	1.55632	1.57127	42.5237
9.43434	1.55632	1.57127	42.3219
9.53535	1.55632	1.57127	42.1201
9.63636	1.55632	1.57127	41.9182
9.73737	1.55632	1.57127	41.7163
9.83838	1.55632	1.57127	41.5143
9.93939	1.55632	1.57127	41.3124
10.0404	1.55632	1.57127	41.1104
10.1414	1.55632	1.57127	40.9084
10.2424	1.55632	1.57127	40.7064
10.3434	1.55632	1.57127	40.5044
10.4444	1.55632	1.57127	40.3024
10.5455	1.55632	1.57127	40.1004
10.6465	1.55632	1.57127	39.8984
10.7475	1.55632	1.57127	39.6964
10.8485	1.55632	1.57127	39.4944
10.9495	1.55632	1.57127	39.2923
11.0505	1.55632	1.57127	39.0903
11.1515	1.55632	1.57127	38.8883
11.2525	1.55632	1.57127	38.6862
11.3535	1.55632	1.57127	38.4842
11.4545	1.55632	1.57127	38.2821
11.5556	1.55632	1.57127	38.08
11.6566	1.55632	1.57127	37.8779
11.7576	1.55632	1.57127	37.6758
11.8586	1.55632	1.57127	37.4737
11.9596	1.55632	1.57127	37.2715
12.0606	1.55632	1.57127	37.0693
12.1616	1.55632	1.57127	36.867
12.2626	1.55632	1.57127	36.6647
12.3636	1.55632	1.57127	36.4623
12.4646	1.55632	1.57127	36.2598
12.5657	1.55632	1.57127	36.0572
12.6667	1.55632	1.57127	35.8544
12.7677	1.55632	1.57127	35.6514
12.8687	1.55632	1.57127	35.4482
12.9697	1.55632	1.57127	35.2446
13.0707	1.55632	1.57127	35.0407
13.1717	1.55632	1.57127	34.8362
13.2727	1.55632	1.57127	34.6311
13.3737	1.55632	1.57127	34.4252
13.4747	1.55632	1.57127	34.2183
13.5758	1.55632	1.57127	34.0101
13.6768	1.55632	1.57127	33.8003
13.7778	1.55632	1.57127	33.5885
13.8788	1.55632	1.57127	33.374
13.9798	1.55632	1.57127	33.1563
14.0808	1.55632	1.57127	32.9345
14.1818	1.55632	1.57127	32.7076
14.2828	1.55632	1.57127	32.4741
14.3838	1.55632	1.57127	32.2323
14.4848	1.55632	1.57127	31.9802
14.5859	1.55632	1.57127	31.7149
14.6869	1.55632	1.57127	31.4331
14.7879	1.55632	1.57127	31.1304
14.8889	1.55632	1.57127	30.8013
14.9899	1.55632	1.57127	30.4389
15.0909	1.55632	1.57127	30.0346
15.1919	1.55632	1.57127	29.5772
15.2929	1.55632	1.57127	29.053
15.3939	1.55632	1.57127	28.4445
15.4949	1.55632	1.57127	27.7295
15.596	1.55632	1.57127	26.8801
15.697	1.55632	1.57127	25.8613
15.798	1.55632	1.57127	24.6285
15.899	1.55632	1.57127	23.1259
16	1.55632	1.57127	21.2827
6	1.57059	1.60437	46.9841
6.10101	1.57059	1.60437	47.2327
6.20202	1.57059	1.60437	47.3878
6.30303	1.57059	1.60437	47.4688
6.40404	1.57059	1.60437	47.4911
6.50505	1.57059	1.60437	47.4668
6.60606	1.57059	1.60437	47.4056
6.70707	1.57059	1.60437	47.3152
6.80808	1.57059	1.60437	47.2016
6.90909	1.57059	1.60437	47.0697
7.0101	1.57059	1.60437	46.9232
7.11111	1.57059	1.60437	46.7653
7.21212	1.57059	1.60437	46.5981
7.31313	1.57059	1.60437	46.4238
7.41414	1.57059	1.60437	46.2436
7.51515	1.57059	1.60437	46.059
7.61616	1.57059	1.60437	45.8707
7.71717	1.57059	1.60437	45.6796
7.81818	1.57059	1.60437	45.4862
7.91919	1.57059	1.60437	45.2911
8.0202	1.57059	1.60437	45.0945
8.12121	1.57059	1.60437	44.8968
8.22222	1.57059	1.60437	44.6981
8.32323	1.57059	1.60437	44.4988
8.42424	1.57059	1.60437	44.2989
8.52525	1.57059	1.60437	44.0986
8.62626	1.57059	1.60437	43.8979
8.72727	1.57059	1.60437	43.697
8.82828	1.57059	1.60437	43.4958
8.92929	1.57059	1.60437	43.2945
9.0303	1.57059	1.60437	43.093
9.13131	1.57059	1.60437	42.8914
9.23232	1.57059	1.60437	42.6897
9.33333	1.57059	1.60437	42.4879
9.43434	1.57059	1.60437	42.2861
9.53535	1.57059	1.60437	42.0843
9.63636	1.57059	1.60437	41.8824
9.73737	1.57059	1.60437	41.6805
9.83838	1.57059	1.60437	41.4785
9.93939	1.57059	1.60437	41.2766
10.0404	1.57059	1.60437	41.0746
10.1414	1.57059	1.60437	40.8726
10.2424	1.57059	1.60437	40.6706
10.3434	1.57059	1.60437	40.4686
10.4444	1.57059	1.60437	40.2666
10.5455	1.57059	1.60437	40.0646
10.6465	1.57059	1.60437	39.8626
10.7475	1.57059	1.60437	39.6606
10.8485	1.57059	1.60437	39.4585
10.9495	1.57059	1.60437	39.2565
11.0505	1.57059	1.60437	39.0545
11.1515	1.57059	1.60437	38.8524
11.2525	1.57059	1.60437	38.6504
11.3535	1.57059	1.60437	38.4483
11.4545	1.57059	1.60437	38.2463
11.5556	1.57059	1.60437	38.0442
11.6566	1.57059	1.60437	37.8421
11.7576	1.57059	1.60437	37.64
11.8586	1.57059	1.60437	37.4379
11.9596	1.57059	1.60437	37.2357
12.0606	1.57059	1.60437	37.0335
12.1616	1.57059	1.60437	36.8312
12.2626	1.57059	1.60437	36.6289
12.3636	1.57059	1.60437	36.4265
12.4646	1.57059	1.60437	36.224
12.5657	1.57059	1.60437	36.0214
12.6667	1.57059	1.60437	35.8186
12.7677	1.57059	1.60437	35.6156
12.8687	1.57059	1.60437	35.4124
12.9697	1.57059	1.60437	35.2088
13.0707	1.57059	1.60437	35.0049
13.1717	1.57059	1.60437	34.8004
13.2727	1.57059	1.60437	34.5953
13.3737	1.57059	1.60437	34.3894
13.4747	1.57059	1.60437	34.1825
13.5758	1.57059	1.60437	33.9743
13.6768	1.57059	1.60437	33.7645
13.7778	1.57059	1.60437	33.5526
13.8788	1.57059	1.60437	33.3382
13.9798	1.57059	1.60437	33.1205
14.0808	1.57059	1.60437	32.8987
14.1818	1.57059	1.60437	32.6718
14.2828	1.57059	1.60437	32.4383
14.3838	1.57059	1.60437	32.1965
14.4848	1.57059	1.60437	31.9444
14.5859	1.57059	1.60437	31.6791
14.6869	1.57059	1.60437	31.3973
14.7879	1.57059	1.60437	31.0946
14.8889	1.57059	1.60437	30.7655
14.9899	1.57059	1.60437	30.4031
15.0909	1.57059	1.60437	29.9988
15.1919	1.57059	1.60437	29.5414
15.2929	1.57059	1.60437	29.0172
15.3939	1.57059	1.60437	28.4087
15.4949	1.57059	1.60437	27.6937
15.596	1.57059	1.60437	26.8443
15.697	1.57059	1.60437	25.8255
15.798	1.57059	1.60437	24.5927
15.899	1.57059	1.60437	23.0901
16	1.57059	1.60437	21.2469
6	1.58485	1.63387	46.9438
6.10101	1.58485	1.63387	47.1924
6.20202	1.58485	1.63387	47.3474
6.30303	1.58485	1.63387	47.4284
6.40404	1.58485	1.63387	47.4507
6.50505	1.58485	1.63387	47.4264
6.60606	1.58485	1.63387	47.3652
6.70707	1.58485	1.63387	47.2748
6.80808	1.58485	1.63387	47.1613
6.90909	1.58485	1.63387	47.0293
7.0101	1.58485	1.63387	46.8829
7.11111	1.58485	1.63387	46.7249
7.21212	1.58485	1.63387	46.5578
7.31313	1.58485	1.63387	46.3834
7.41414	1.58485	1.63387	46.2033
7.51515	1.58485	1.63387	46.0186
7.61616	1.58485	1.63387	45.8304
7.71717	1.58485	1.63387	45.6392
7.81818	1.58485	1.63387	45.4459
7.91919	1.58485	1.63387	45.2507
8.0202	1.58485	1.63387	45.0541
8.12121	1.58485	1.63387	44.8564
8.22222	1.58485	1.63387	44.6578
8.32323	1.58485	1.63387	44.4585
8.42424	1.58485	1.63387	44.2586
8.52525	1.58485	1.63387	44.0583
8.62626	1.58485	1.63387	43.8576
8.72727	1.58485	1.63387	43.6566
8.82828	1.58485	1.63387	43.4554
8.92929	1.58485	1.63387	43.2541
9.0303	1.58485	1.63387	43.0526
9.13131	1.58485	1.63387	42.851
9.23232	1.58485	1.63387	42.6493
9.33333	1.58485	1.63387	42.4476
9.43434	1.58485	1.63387	42.2457
9.53535	1.58485	1.63387	42.0439
9.63636	1.58485	1.63387	41.842
9.73737	1.58485	1.63387	41.6401
9.83838	1.58485	1.63387	41.4381
9.93939	1.58485	1.63387	41.2362
10.0404	1.58485	1.63387	41.0342
10.1414	1.58485	1.63387	40.8322
10.2424	1.58485	1.63387	40.6302
10.3434	1.58485	1.63387	40.4283
10.4444	1.58485	1.63387	40.2262
10.5455	1.58485	1.63387	40.0242
10.6465	1.58485	1.63387	39.8222
10.7475	1.58485	1.63387	39.6202
10.8485	1.58485	1.63387	39.4182
10.9495	1.58485	1.63387	39.2162
11.0505	1.58485	1.63387	39.0141
11.1515	1.58485	1.63387	38.8121
11.2525	1.58485	1.63387	38.61
11.3535	1.58485	1.63387	38.408
11.4545	1.58485	1.63387	38.2059
11.5556	1.58485	1.63387	38.0038
11.6566	1.58485	1.63387	37.8017
11.7576	1.58485	1.63387	37.5996
11.8586	1.58485	1.63387	37.3975
11.9596	1.58485	1.63387	37.1953
12.0606	1.58485	1.63387	36.9931
12.1616	1.58485	1.63387	36.7909
12.2626	1.58485	1.63387	36.5885
12.3636	1.58485	1.63387	36.3861
12.4646	1.58485	1.63387	36.1836
12.5657	1.58485	1.63387	35.981
12.6667	1.58485	1.63387	35.7782
12.7677	1.58485	1.63387	35.5752
12.8687	1.58485	1.63387	35.372
12.9697	1.58485	1.63387	35.1685
13.0707	1.58485	1.63387	34.9645
13.1717	1.58485	1.63387	34.7601
13.2727	1.58485	1.63387	34.555
13.3737	1.58485	1.63387	34.3491
13.4747	1.58485	1.63387	34.1421
13.5758	1.58485	1.63387	33.9339
13.6768	1.58485	1.63387	33.7241
13.7778	1.58485	1.63387	33.5123
13.8788	1.58485	1.63387	33.2978
13.9798	1.58485	1.63387	33.0801
14.0808	1.58485	1.63387	32.8584
14.1818	1.58485	1.63387	32.6314
14.2828	1.58485	1.63387	32.3979
14.3838	1.58485	1.63387	32.1562
14.4848	1.58485	1.63387	31.904
14.5859	1.58485	1.63387	31.6388
14.6869	1.58485	1.63387	31.3569
14.7879	1.58485	1.63387	31.0542
14.8889	1.58485	1.63387	30.7251
14.9899	1.58485	1.63387	30.3627
15.0909	1.58485	1.63387	29.9584
15.1919	1.58485	1.63387	29.5011
15.2929	1.58485	1.63387	28.9769
15.3939	1.58485	1.63387	28.3683
15.4949	1.58485	1.63387	27.6533
15.596	1.58485	1.63387	26.804
15.697	1.58485	1.63387	25.7851
15.798	1.58485	1.63387	24.5524
15.899	1.58485	1.63387	23.0497
16	1.58485	1.63387	21.2065
6	1.59912	1.66836	46.908
6.10101	1.59912	1.66836	47.1566
6.20202	1.59912	1.66836	47.3117
6.30303	1.59912	1.66836	47.3927
6.40404	1.59912	1.66836	47.415
6.50505	1.59912	1.66836	47.3907
6.60606	1.59912	1.66836	47.3295
6.70707	1.59912	1.66836	47.2391
6.80808	1.59912	1.66836	47.1255
6.90909	1.59912	1.66836	46.9936
7.0101	1.59912	1.66836	46.8472
7.11111	1.59912	1.66836	46.6892
7.21212	1.59912	1.66836	46.522
7.31313	1.59912	1.66836	46.3477
7.41414	1.59912	1.66836	46.1676
7.51515	1.59912	1.66836	45.9829
7.61616	1.59912	1.66836	45.7946
7.71717	1.59912	1.66836	45.6035
7.81818	1.59912	1.66836	45.4102
7.91919	1.59912	1.66836	45.215
8.0202	1.59912	1.66836	45.0184
8.12121	1.59912	1.66836	44.8207
8.22222	1.59912	1.66836	44.6221
8.32323	1.59912	1.66836	44.4227
8.42424	1.59912	1.66836	44.2229
8.52525	1.59912	1.66836	44.0225
8.62626	1.59912	1.66836	43.8219
8.72727	1.59912	1.66836	43.6209
8.82828	1.59912	1.66836	43.4197
8.92929	1.59912	1.66836	43.2184
9.0303	1.59912	1.66836	43.0169
9.13131	1.59912	1.66836	42.8153
9.23232	1.59912	1.66836	42.6136
9.33333	1.59912	1.66836	42.4118
9.43434	1.59912	1.66836	42.21
9.53535	1.59912	1.66836	42.0082
9.63636	1.59912	1.66836	41.8063
9.73737	1.59912	1.66836	41.6044
9.83838	1.59912	1.66836	41.4024
9.93939	1.59912	1.66836	41.2005
10.0404	1.59912	1.66836	40.9985
10.1414	1.59912	1.66836	40.7965
10.2424	1.59912	1.66836	40.5945
10.3434	1.59912	1.66836	40.3925
10.4444	1.59912	1.66836	40.1905
10.5455	1.59912	1.66836	39.9885
10.6465	1.59912	1.66836	39.7865
10.7475	1.59912	1.66836	39.5845
10.8485	1.59912	1.66836	39.3825
10.9495	1.59912	1.66836	39.1804
11.0505	1.59912	1.66836	38.9784
11.1515	1.59912	1.66836	38.7764
11.2525	1.59912	1.66836	38.5743
11.3535	1.59912	1.66836	38.3723
11.4545	1.59912	1.66836	38.1702
11.5556	1.59912	1.66836	37.9681
11.6566	1.59912	1.66836	37.766
11.7576	1.59912	1.66836	37.5639
11.8586	1.59912	1.66836	37.3618
11.9596	1.59912	1.66836	37.1596
12.0606	1.59912	1.66836	36.9574
12.1616	1.59912	1.66836	36.7551
12.2626	1.59912	1.66836	36.5528
12.3636	1.59912	1.66836	36.3504
12.4646	1.59912	1.66836	36.1479
12.5657	1.59912	1.66836	35.9453
12.6667	1.59912	1.66836	35.7425
12.7677	1.59912	1.66836	35.5395
12.8687	1.59912	1.66836	35.3363
12.9697	1.59912	1.66836	35.1327
13.0707	1.59912	1.66836	34.9288
13.1717	1.59912	1.66836	34.7243
13.2727	1.59912	1.66836	34.5192
13.3737	1.59912	1.66836	34.3133
13.4747	1.59912	1.66836	34.1064
13.5758	1.59912	1.66836	33.8982
13.6768	1.59912	1.66836	33.6884
13.7778	1.59912	1.66836	33.4766
13.8788	1.59912	1.66836	33.2621
13.9798	1.59912	1.66836	33.0444
14.0808	1.59912	1.66836	32.8226
14.1818	1.59912	1.66836	32.5957
14.2828	1.59912	1.66836	32.3622
14.3838	1.59912	1.66836	32.1204
14.4848	1.59912	1.66836	31.8683
14.5859	1.59912	1.66836	31.603
14.6869	1.59912	1.66836	31.3212
14.7879	1.59912	1.66836	31.0185
14.8889	1.59912	1.66836	30.6894
14.9899	1.59912	1.66836	30.327
15.0909	1.59912	1.66836	29.9227
15.1919	1.59912	1.66836	29.4653
15.2929	1.59912	1.66836	28.9411
15.3939	1.59912	1.66836	28.3326
15.4949	1.59912	1.66836	27.6176
15.596	1.59912	1.66836	26.7682
15.697	1.59912	1.66836	25.7494
15.798	1.59912	1.66836	24.5166
15.899	1.59912	1.66836	23.014
16	1.59912	1.66836	21.1708
6	1.61338	1.69934	46.8678
6.10101	1.61338	1.69934	47.1164
6.20202	1.61338	1.69934	47.2715
6.30303	1.61338	1.69934	47.3525
6.40404	1.61338	1.69934	47.3747
6.50505	1.61338	1.69934	47.3505
6.60606	1.61338	1.69934	47.2893
6.70707	1.61338	1.69934	47.1989
6.80808	1.61338	1.69934	47.0853
6.90909	1.61338	1.69934	46.9534
7.0101	1.61338	1.69934	46.8069
7.11111	1.61338	1.69934	46.6489
7.21212	1.61338	1.69934	46.4818
7.31313	1.61338	1.69934	46.3074
7.41414	1.61338	1.69934	46.1273
7.51515	1.61338	1.69934	45.9427
7.61616	1.61338	1.69934	45.7544
7.71717	1.61338	1.69934	45.5633
7.81818	1.61338	1.69934	45.3699
7.91919	1.61338	1.69934	45.1748
8.0202	1.61338	1.69934	44.9782
8.12121	1.61338	1.69934	44.7804
8.22222	1.61338	1.69934	44.5818
8.32323	1.61338	1.69934	44.3825
8.42424	1.61338	1.69934	44.1826
8.52525	1.61338	1.69934	43.9823
8.62626	1.61338	1.69934	43.7816
8.72727	1.61338	1.69934	43.5807
8.82828	1.61338	1.69934	43.3795
8.92929	1.61338	1.69934	43.1782
9.0303	1.61338	1.69934	42.9767
9.13131	1.61338	1.69934	42.7751
9.23232	1.61338	1.69934	42.5734
9.33333	1.61338	1.69934	42.3716
9.43434	1.61338	1.69934	42.1698
9.53535	1.61338	1.69934	41.968
9.63636	1.61338	1.69934	41.7661
9.73737	1.61338	1.69934	41.5641
9.83838	1.61338	1.69934	41.3622
9.93939	1.61338	1.69934	41.1602
10.0404	1.61338	1.69934	40.9583
10.1414	1.61338	1.69934	40.7563
10.2424	1.61338	1.69934	40.5543
10.3434	1.61338	1.69934	40.3523
10.4444	1.61338	1.69934	40.1503
10.5455	1.61338	1.69934	39.9483
10.6465	1.61338	1.69934	39.7463
10.7475	1.61338	1.69934	39.5443
10.8485	1.61338	1.69934	39.3422
10.9495	1.61338	1.69934	39.1402
11.0505	1.61338	1.69934	38.9382
11.1515	1.61338	1.69934	38.7361
11.2525	1.61338	1.69934	38.5341
11.3535	1.61338	1.69934	38.332
11.4545	1.61338	1.69934	38.13
11.5556	1.61338	1.69934	37.9279
11.6566	1.61338	1.69934	37.7258
11.7576	1.61338	1.69934	37.5237
11.8586	1.61338	1.69934	37.3215
11.9596	1.61338	1.69934	37.1194
12.0606	1.61338	1.69934	36.9172
12.1616	1.61338	1.69934	36.7149
12.2626	1.61338	1.69934	36.5126
12.3636	1.61338	1.69934	36.3102
12.4646	1.61338	1.69934	36.1077
12.5657	1.61338	1.69934	35.9051
12.6667	1.61338	1.69934	35.7023
12.7677	1.61338	1.69934	35.4993
12.8687	1.61338	1.69934	35.2961
12.9697	1.61338	1.69934	35.0925
13.0707	1.61338	1.69934	34.8886
13.1717	1.61338	1.69934	34.6841
13.2727	1.61338	1.69934	34.479
13.3737	1.61338	1.69934	34.2731
13.4747	1.61338	1.69934	34.0662
13.5758	1.61338	1.69934	33.858
13.6768	1.61338	1.69934	33.6482
13.7778	1.61338	1.69934	33.4363
13.8788	1.61338	1.69934	33.2219
13.9798	1.61338	1.69934	33.0042
14.0808	1.61338	1.69934	32.7824
14.1818	1.61338	1.69934	32.5555
14.2828	1.61338	1.69934	32.322
14.3838	1.61338	1.69934	32.0802
14.4848	1.61338	1.69934	31.8281
14.5859	1.61338	1.69934	31.5628
14.6869	1.61338	1.69934	31.281
14.7879	1.61338	1.69934	30.9783
14.8889	1.61338	1.69934	30.6492
14.9899	1.61338	1.69934	30.2868
15.0909	1.61338	1.69934	29.8824
15.1919	1.61338	1.69934	29.4251
15.2929	1.61338	1.69934	28.9009
15.3939	1.61338	1.69934	28.2924
15.4949	1.61338	1.69934	27.5774
15.596	1.61338	1.69934	26.728
15.697	1.61338	1.69934	25.7092
15.798	1.61338	1.69934	24.4764
15.899	1.61338	1.69934	22.9738
16	1.61338	1.69934	21.1306
6	1.62765	1.73535	46.8322
6.10101	1.62765	1.73535	47.0807
6.20202	1.62765	1.73535	47.2358
6.30303	1.62765	1.73535	47.3168
6.40404	1.62765	1.73535	47.3391
6.50505	1.62765	1.73535	47.3148
6.60606	1.62765	1.73535	47.2536
6.70707	1.62765	1.73535	47.1632
6.80808	1.62765	1.73535	47.0497
6.90909	1.62765	1.73535	46.9177
7.0101	1.62765	1.73535	46.7713
7.11111	1.62765	1.73535	46.6133
7.21212	1.62765	1.73535	46.4461
7.31313	1.62765	1.73535	46.2718
7.41414	1.62765	1.73535	46.0917
7.51515	1.62765	1.73535	45.907
7.61616	1.62765	1.73535	45.7187
7.71717	1.62765	1.73535	45.5276
7.81818	1.62765	1.73535	45.3343
7.91919	1.62765	1.73535	45.1391
8.0202	1.62765	1.73535	44.9425
8.12121	1.62765	1.73535	44.7448
8.22222	1.62765	1.73535	44.5462
8.32323	1.62765	1.73535	44.3468
8.42424	1.62765	1.73535	44.147
8.52525	1.62765	1.73535	43.9466
8.62626	1.62765	1.73535	43.746
8.72727	1.62765	1.73535	43.545
8.82828	1.62765	1.73535	43.3438
8.92929	1.62765	1.73535	43.1425
9.0303	1.62765	1.73535	42.941
9.13131	1.62765	1.73535	42.7394
9.23232	1.62765	1.73535	42.5377
9.33333	1.62765	1.73535	42.3359
9.43434	1.62765	1.73535	42.1341
9.53535	1.62765	1.73535	41.9323
9.63636	1.62765	1.73535	41.7304
9.73737	1.62765	1.73535	41.5285
9.83838	1.62765	1.73535	41.3265
9.93939	1.62765	1.73535	41.1246
10.0404	1.62765	1.73535	40.9226
10.1414	1.62765	1.73535	40.7206
10.2424	1.62765	1.73535	40.5186
10.3434	1.62765	1.73535	40.3166
10.4444	1.62765	1.73535	40.1146
10.5455	1.62765	1.73535	39.9126
10.6465	1.62765	1.73535	39.7106
10.7475	1.62765	1.73535	39.5086
10.8485	1.62765	1.73535	39.3066
10.9495	1.62765	1.73535	39.1045
11.0505	1.62765	1.73535	38.9025
11.1515	1.62765	1.73535	38.7005
11.2525	1.62765	1.73535	38.4984
11.3535	1.62765	1.73535	38.2964
11.4545	1.62765	1.73535	38.0943
11.5556	1.62765	1.73535	37.8922
11.6566	1.62765	1.73535	37.6901
11.7576	1.62765	1.73535	37.488
11.8586	1.62765	1.73535	37.2859
11.9596	1.62765	1.73535	37.0837
12.0606	1.62765	1.73535	36.8815
12.1616	1.62765	1.73535	36.6792
12.2626	1.62765	1.73535	36.4769
12.3636	1.62765	1.73535	36.2745
12.4646	1.62765	1.73535	36.072
12.5657	1.62765	1.73535	35.8694
12.6667	1.62765	1.73535	35.6666
12.7677	1.62765	1.73535	35.4636
12.8687	1.62765	1.73535	35.2604
12.9697	1.62765	1.73535	35.0569
13.0707	1.62765	1.73535	34.8529
13.1717	1.62765	1.73535	34.6484
13.2727	1.62765	1.73535	34.4433
13.3737	1.62765	1.73535	34.2374
13.4747	1.62765	1.73535	34.0305
13.5758	1.62765	1.73535	33.8223
13.6768	1.62765	1.73535	33.6125
13.7778	1.62765	1.73535	33.4007
13.8788	1.62765	1.73535	33.1862
13.9798	1.62765	1.73535	32.9685
14.0808	1.62765	1.73535	32.7467
14.1818	1.62765	1.73535	32.5198
14.2828	1.62765	1.73535	32.2863
14.3838	1.62765	1.73535	32.0445
14.4848	1.62765	1.73535	31.7924
14.5859	1.62765	1.73535	31.5271
14.6869	1.62765	1.73535	31.2453
14.7879	1.62765	1.73535	30.9426
14.8889	1.62765	1.73535	30.6135
14.9899	1.62765	1.73535	30.2511
15.0909	1.62765	1.73535	29.8468
15.1919	1.62765	1.73535	29.3894
15.2929	1.62765	1.73535	28.8652
15.3939	1.62765	1.73535	28.2567
15.4949	1.62765	1.73535	27.5417
15.596	1.62765	1.73535	26.6923
15.697	1.62765	1.73535	25.6735
15.798	1.62765	1.73535	24.4408
15.899	1.62765	1.73535	22.9381
16	1.62765	1.73535	21.0949
6	1.64191	1.76794	46.792
6.10101	1.64191	1.76794	47.0406
6.20202	1.64191	1.76794	47.1957
6.30303	1.64191	1.76794	47.2767
6.40404	1.64191	1.76794	47.2989
6.50505	1.64191	1.76794	47.2746
6.60606	1.64191	1.76794	47.2135
6.70707	1.64191	1.76794	47.1231
6.80808	1.64191	1.76794	47.0095
6.90909	1.64191	1.76794	46.8776
7.0101	1.64191	1.76794	46.7311
7.11111	1.64191	1.76794	46.5731
7.21212	1.64191	1.76794	46.406
7.31313	1.64191	1.76794	46.2316
7.41414	1.64191	1.76794	46.0515
7.51515	1.64191	1.76794	45.8669
7.61616	1.64191	1.76794	45.6786
7.71717	1.64191	1.76794	45.4875
7.81818	1.64191	1.76794	45.2941
7.91919	1.64191	1.76794	45.0989
8.0202	1.64191	1.76794	44.9023
8.12121	1.64191	1.76794	44.7046
8.22222	1.64191	1.76794	44.506
8.32323	1.64191	1.76794	44.3067
8.42424	1.64191	1.76794	44.1068
8.52525	1.64191	1.76794	43.9065
8.62626	1.64191	1.76794	43.7058
8.72727	1.64191	1.76794	43.5049
8.82828	1.64191	1.76794	43.3037
8.92929	1.64191	1.76794	43.1023
9.0303	1.64191	1.76794	42.9008
9.13131	1.64191	1.76794	42.6992
9.23232	1.64191	1.76794	42.4976
9.33333	1.64191	1.76794	42.2958
9.43434	1.64191	1.76794	42.094
9.53535	1.64191	1.76794	41.8921
9.63636	1.64191	1.76794	41.6902
9.73737	1.64191	1.76794	41.4883
9.83838	1.64191	1.76794	41.2864
9.93939	1.64191	1.76794	41.0844
10.0404	1.64191	1.76794	40.8825
10.1414	1.64191	1.76794	40.6805
10.2424	1.64191	1.76794	40.4785
10.3434	1.64191	1.76794	40.2765
10.4444	1.64191	1.76794	40.0745
10.5455	1.64191	1.76794	39.8725
10.6465	1.64191	1.76794	39.6705
10.7475	1.64191	1.76794	39.4684
10.8485	1.64191	1.76794	39.2664
10.9495	1.64191	1.76794	39.0644
11.0505	1.64191	1.76794	38.8624
11.1515	1.64191	1.76794	38.6603
11.2525	1.64191	1.76794	38.4583
11.3535	1.64191	1.76794	38.2562
11.4545	1.64191	1.76794	38.0541
11.5556	1.64191	1.76794	37.8521
11.6566	1.64191	1.76794	37.65
11.7576	1.64191	1.76794	37.4479
11.8586	1.64191	1.76794	37.2457
11.9596	1.64191	1.76794	37.0436
12.0606	1.64191	1.76794	36.8413
12.1616	1.64191	1.76794	36.6391
12.2626	1.64191	1.76794	36.4368
12.3636	1.64191	1.76794	36.2344
12.4646	1.64191	1.76794	36.0319
12.5657	1.64191	1.76794	35.8292
12.6667	1.64191	1.76794	35.6265
12.7677	1.64191	1.76794	35.4235
12.8687	1.64191	1.76794	35.2203
12.9697	1.64191	1.76794	35.0167
13.0707	1.64191	1.76794	34.8127
13.1717	1.64191	1.76794	34.6083
13.2727	1.64191	1.76794	34.4032
13.3737	1.64191	1.76794	34.1973
13.4747	1.64191	1.76794	33.9904
13.5758	1.64191	1.76794	33.7822
13.6768	1.64191	1.76794	33.5724
13.7778	1.64191	1.76794	33.3605
13.8788	1.64191	1.76794	33.1461
13.9798	1.64191	1.76794	32.9284
14.0808	1.64191	1.76794	32.7066
14.1818	1.64191	1.76794	32.4796
14.2828	1.64191	1.76794	32.2461
14.3838	1.64191	1.76794	32.0044
14.4848	1.64191	1.76794	31.7523
14.5859	1.64191	1.76794	31.487
14.6869	1.64191	1.76794	31.2052
14.7879	1.64191	1.76794	30.9024
14.8889	1.64191	1.76794	30.5733
14.9899	1.64191	1.76794	30.211
15.0909	1.64191	1.76794	29.8066
15.1919	1.64191	1.76794	29.3493
15.2929	1.64191	1.76794	28.8251
15.3939	1.64191	1.76794	28.2165
15.4949	1.64191	1.76794	27.5015
15.596	1.64191	1.76794	26.6522
15.697	1.64191	1.76794	25.6333
15.798	1.64191	1.76794	24.4006
15.899	1.64191	1.76794	22.898
16	1.64191	1.76794	21.0547
6	1.65618	1.80561	46.7563
6.10101	1.65618	1.80561	47.0049
6.20202	1.65618	1.80561	47.16
6.30303	1.65618	1.80561	47.241
6.40404	1.65618	1.80561	47.2632
6.50505	1.65618	1.80561	47.2389
6.60606	1.65618	1.80561	47.1778
6.70707	1.65618	1.80561	47.0874
6.80808	1.65618	1.80561	46.9738
6.90909	1.65618	1.80561	46.8419
7.0101	1.65618	1.80561	46.6954
7.11111	1.65618	1.80561	46.5374
7.21212	1.65618	1.80561	46.3703
7.31313	1.65618	1.80561	46.1959
7.41414	1.65618	1.80561	46.0158
7.51515	1.65618	1.80561	45.8312
7.61616	1.65618	1.80561	45.6429
7.71717	1.65618	1.80561	45.4518
7.81818	1.65618	1.80561	45.2584
7.91919	1.65618	1.80561	45.0632
8.0202	1.65618	1.80561	44.8667
8.12121	1.65618	1.80561	44.6689
8.22222	1.65618	1.80561	44.4703
8.32323	1.65618	1.80561	44.271
8.42424	1.65618	1.80561	44.0711
8.52525	1.65618	1.80561	43.8708
8.62626	1.65618	1.80561	43.6701
8.72727	1.65618	1.80561	43.4692
8.82828	1.65618	1.80561	43.268
8.92929	1.65618	1.80561	43.0666
9.0303	1.65618	1.80561	42.8652
9.13131	1.65618	1.80561	42.6636
9.23232	1.65618	1.80561	42.4619
9.33333	1.65618	1.80561	42.2601
9.43434	1.65618	1.80561	42.0583
9.53535	1.65618	1.80561	41.8564
9.63636	1.65618	1.80561	41.6546
9.73737	1.65618	1.80561	41.4526
9.83838	1.65618	1.80561	41.2507
9.93939	1.65618	1.80561	41.0487
10.0404	1.65618	1.80561	40.8468
10.1414	1.65618	1.80561	40.6448
10.2424	1.65618	1.80561	40.4428
10.3434	1.65618	1.80561	40.2408
10.4444	1.65618	1.80561	40.0388
10.5455	1.65618	1.80561	39.8368
10.6465	1.65618	1.80561	39.6348
10.7475	1.65618	1.80561	39.4328
10.8485	1.65618	1.80561	39.2307
10.9495	1.65618	1.80561	39.0287
11.0505	1.65618	1.80561	38.8267
11.1515	1.65618	1.80561	38.6246
11.2525	1.65618	1.80561	38.4226
11.3535	1.65618	1.80561	38.2205
11.4545	1.65618	1.80561	38.0185
11.5556	1.65618	1.80561	37.8164
11.6566	1.65618	1.80561	37.6143
11.7576	1.65618	1.80561	37.4122
11.8586	1.65618	1.80561	37.21
11.9596	1.65618	1.80561	37.0079
12.0606	1.65618	1.80561	36.8057
12.1616	1.65618	1.80561	36.6034
12.2626	1.65618	1.80561	36.4011
12.3636	1.65618	1.80561	36.1987
12.4646	1.65618	1.80561	35.9962
12.5657	1.65618	1.80561	35.7936
12.6667	1.65618	1.80561	35.5908
12.7677	1.65618	1.80561	35.3878
12.8687	1.65618	1.80561	35.1846
12.9697	1.65618	1.80561	34.981
13.0707	1.65618	1.80561	34.7771
13.1717	1.65618	1.80561	34.5726
13.2727	1.65618	1.80561	34.3675
13.3737	1.65618	1.80561	34.1616
13.4747	1.65618	1.80561	33.9547
13.5758	1.65618	1.80561	33.7465
13.6768	1.65618	1.80561	33.5367
13.7778	1.65618	1.80561	33.3248
13.8788	1.65618	1.80561	33.1104
13.9798	1.65618	1.80561	32.8927
14.0808	1.65618	1.80561	32.6709
14.1818	1.65618	1.80561	32.4439
14.2828	1.65618	1.80561	32.2104
14.3838	1.65618	1.80561	31.9687
14.4848	1.65618	1.80561	31.7166
14.5859	1.65618	1.80561	31.4513
14.6869	1.65618	1.80561	31.1695
14.7879	1.65618	1.80561	30.8668
14.8889	1.65618	1.80561	30.5377
14.9899	1.65618	1.80561	30.1753
15.0909	1.65618	1.80561	29.7709
15.1919	1.65618	1.80561	29.3136
15.2929	1.65618	1.80561	28.7894
15.3939	1.65618	1.80561	28.1809
15.4949	1.65618	1.80561	27.4658
15.596	1.65618	1.80561	26.6165
15.697	1.65618	1.80561	25.5977
15.798	1.65618	1.80561	24.3649
15.899	1.65618	1.80561	22.8623
16	1.65618	1.80561	21.0191
6	1.67044	1.83995	46.7162
6.10101	1.67044	1.83995	46.9647
6.20202	1.67044	1.83995	47.1198
6.30303	1.67044	1.83995	47.2008
6.40404	1.67044	1.83995	47.2231
6.50505	1.67044	1.83995	47.1988
6.60606	1.67044	1.83995	47.1376
6.70707	1.67044	1.83995	47.0472
6.80808	1.67044	1.83995	46.9337
6.90909	1.67044	1.83995	46.8017
7.0101	1.67044	1.83995	46.6553
7.11111	1.67044	1.83995	46.4973
7.21212	1.67044	1.83995	46.3301
7.31313	1.67044	1.83995	46.1558
7.41414	1.67044	1.83995	45.9757
7.51515	1.67044	1.83995	45.791
7.61616	1.67044	1.83995	45.6027
7.71717	1.67044	1.83995	45.4116
7.81818	1.67044	1.83995	45.2183
7.91919	1.67044	1.83995	45.0231
8.0202	1.67044	1.83995	44.8265
8.12121	1.67044	1.83995	44.6288
8.22222	1.67044	1.83995	44.4302
8.32323	1.67044	1.83995	44.2308
8.42424	1.67044	1.83995	44.031
8.52525	1.67044	1.83995	43.8306
8.62626	1.67044	1.83995	43.63
8.72727	1.67044	1.83995	43.429
8.82828	1.67044	1.83995	43.2278
8.92929	1.67044	1.83995	43.0265
9.0303	1.67044	1.83995	42.825
9.13131	1.67044	1.83995	42.6234
9.23232	1.67044	1.83995	42.4217
9.33333	1.67044	1.83995	42.2199
9.43434	1.67044	1.83995	42.0181
9.53535	1.67044	1.83995	41.8163
9.63636	1.67044	1.83995	41.6144
9.73737	1.67044	1.83995	41.4125
9.83838	1.67044	1.83995	41.2105
9.93939	1.67044	1.83995	41.0086
10.0404	1.67044	1.83995	40.8066
10.1414	1.67044	1.83995	40.6046
10.2424	1.67044	1.83995	40.4026
10.3434	1.67044	1.83995	40.2006
10.4444	1.67044	1.83995	39.9986
10.5455	1.67044	1.83995	39.7966
10.6465	1.67044	1.83995	39.5946
10.7475	1.67044	1.83995	39.3926
10.8485	1.67044	1.83995	39.1906
10.9495	1.67044	1.83995	38.9885
11.0505	1.67044	1.83995	38.7865
11.1515	1.67044	1.83995	38.5845
11.2525	1.67044	1.83995	38.3824
11.3535	1.67044	1.83995	38.1804
11.4545	1.67044	1.83995	37.9783
11.5556	1.67044	1.83995	37.7762
11.6566	1.67044	1.83995	37.5741
11.7576	1.67044	1.83995	37.372
11.8586	1.67044	1.83995	37.1699
11.9596	1.67044	1.83995	36.9677
12.0606	1.67044	1.83995	36.7655
12.1616	1.67044	1.83995	36.5632
12.2626	1.67044	1.83995	36.3609
12.3636	1.67044	1.83995	36.1585
12.4646	1.67044	1.83995	35.956
12.5657	1.67044	1.83995	35.7534
12.6667	1.67044	1.83995	35.5506
12.7677	1.67044	1.83995	35.3476
12.8687	1.67044	1.83995	35.1444
12.9697	1.67044	1.83995	34.9409
13.0707	1.67044	1.83995	34.7369
13.1717	1.67044	1.83995	34.5324
13.2727	1.67044	1.83995	34.3273
13.3737	1.67044	1.83995	34.1214
13.4747	1.67044	1.83995	33.9145
13.5758	1.67044	1.83995	33.7063
13.6768	1.67044	1.83995	33.4965
13.7778	1.67044	1.83995	33.2847
13.8788	1.67044	1.83995	33.0702
13.9798	1.67044	1.83995	32.8525
14.0808	1.67044	1.83995	32.6307
14.1818	1.67044	1.83995	32.4038
14.2828	1.67044	1.83995	32.1703
14.3838	1.67044	1.83995	31.9285
14.4848	1.67044	1.83995	31.6764
14.5859	1.67044	1.83995	31.4111
14.6869	1.67044	1.83995	31.1293
14.7879	1.67044	1.83995	30.8266
14.8889	1.67044	1.83995	30.4975
14.9899	1.67044	1.83995	30.1351
15.0909	1.67044	1.83995	29.7308
15.1919	1.67044	1.83995	29.2734
15.2929	1.67044	1.83995	28.7492
15.3939	1.67044	1.83995	28.1407
15.4949	1.67044	1.83995	27.4257
15.596	1.67044	1.83995	26.5763
15.697	1.67044	1.83995	25.5575
15.798	1.67044	1.83995	24.3248
15.899	1.67044	1.83995	22.8221
16	1.67044	1.83995	20.9789
6	1.68471	1.87943	46.6804
6.10101	1.68471	1.87943	46.929
6.20202	1.68471	1.87943	47.0841
6.30303	1.68471	1.87943	47.165
6.40404	1.68471	1.87943	47.1873
6.50505	1.68471	1.87943	47.163
6.60606	1.68471	1.87943	47.1018
6.70707	1.68471	1.87943	47.0114
6.80808	1.68471	1.87943	46.8979
6.90909	1.68471	1.87943	46.766
7.0101	1.68471	1.87943	46.6195
7.11111	1.68471	1.87943	46.4615
7.21212	1.68471	1.87943	46.2944
7.31313	1.68471	1.87943	46.12
7.41414	1.68471	1.87943	45.9399
7.51515	1.68471	1.87943	45.7552
7.61616	1.68471	1.87943	45.567
7.71717	1.68471	1.87943	45.3759
7.81818	1.68471	1.87943	45.1825
7.91919	1.68471	1.87943	44.9873
8.0202	1.68471	1.87943	44.7907
8.12121	1.68471	1.87943	44.593
8.22222	1.68471	1.87943	44.3944
8.32323	1.68471	1.87943	44.1951
8.42424	1.68471	1.87943	43.9952
8.52525	1.68471	1.87943	43.7949
8.62626	1.68471	1.87943	43.5942
8.72727	1.68471	1.87943	43.3932
8.82828	1.68471	1.87943	43.1921
8.92929	1.68471	1.87943	42.9907
9.0303	1.68471	1.87943	42.7892
9.13131	1.68471	1.87943	42.5876
9.23232	1.68471	1.87943	42.3859
9.33333	1.68471	1.87943	42.1842
9.43434	1.68471	1.87943	41.9824
9.53535	1.68471	1.87943	41.7805
9.63636	1.68471	1.87943	41.5786
9.73737	1.68471	1.87943	41.3767
9.83838	1.68471	1.87943	41.1748
9.93939	1.68471	1.87943	40.9728
10.0404	1.68471	1.87943	40.7708
10.1414	1.68471	1.87943	40.5689
10.2424	1.68471	1.87943	40.3669
10.3434	1.68471	1.87943	40.1649
10.4444	1.68471	1.87943	39.9629
10.5455	1.68471	1.87943	39.7609
10.6465	1.68471	1.87943	39.5588
10.7475	1.68471	1.87943	39.3568
10.8485	1.68471	1.87943	39.1548
10.9495	1.68471	1.87943	38.9528
11.0505	1.68471	1.87943	38.7507
11.1515	1.68471	1.87943	38.5487
11.2525	1.68471	1.87943	38.3466
11.3535	1.68471	1.87943	38.1446
11.4545	1.68471	1.87943	37.9425
11.5556	1.68471	1.87943	37.7404
11.6566	1.68471	1.87943	37.5384
11.7576	1.68471	1.87943	37.3362
11.8586	1.68471	1.87943	37.1341
11.9596	1.68471	1.87943	36.9319
12.0606	1.68471	1.87943	36.7297
12.1616	1.68471	1.87943	36.5275
12.2626	1.68471	1.87943	36.3251
12.3636	1.68471	1.87943	36.1227
12.4646	1.68471	1.87943	35.9203
12.5657	1.68471	1.87943	35.7176
12.6667	1.68471	1.87943	35.5148
12.7677	1.68471	1.87943	35.3119
12.8687	1.68471	1.87943	35.1086
12.9697	1.68471	1.87943	34.9051
13.0707	1.68471	1.87943	34.7011
13.1717	1.68471	1.87943	34.4967
13.2727	1.68471	1.87943	34.2916
13.3737	1.68471	1.87943	34.0857
13.4747	1.68471	1.87943	33.8788
13.5758	1.68471	1.87943	33.6706
13.6768	1.68471	1.87943	33.4607
13.7778	1.68471	1.87943	33.2489
13.8788	1.68471	1.87943	33.0344
13.9798	1.68471	1.87943	32.8168
14.0808	1.68471	1.87943	32.595
14.1818	1.68471	1.87943	32.368
14.2828	1.68471	1.87943	32.1345
14.3838	1.68471	1.87943	31.8928
14.4848	1.68471	1.87943	31.6406
14.5859	1.68471	1.87943	31.3754
14.6869	1.68471	1.87943	31.0935
14.7879	1.68471	1.87943	30.7908
14.8889	1.68471	1.87943	30.4617
14.9899	1.68471	1.87943	30.0994
15.0909	1.68471	1.87943	29.695
15.1919	1.68471	1.87943	29.2377
15.2929	1.68471	1.87943	28.7135
15.3939	1.68471	1.87943	28.1049
15.4949	1.68471	1.87943	27.3899
15.596	1.68471	1.87943	26.5406
15.697	1.68471	1.87943	25.5217
15.798	1.68471	1.87943	24.289
15.899	1.68471	1.87943	22.7863
16	1.68471	1.87943	20.9431
6	1.69897	1.91566	-inf
6.10101	1.69897	1.91566	-inf
6.20202	1.69897	1.91566	-inf
6.30303	1.69897	1.91566	-inf
6.40404	1.69897	1.91566	-inf
6.50505	1.69897	1.91566	-inf
6.60606	1.69897	1.91566	-inf
6.70707	1.69897	1.91566	-inf
6.80808	1.69897	1.91566	-inf
6.90909	1.69897	1.91566	-inf
7.0101	1.69897	1.91566	-inf
7.11111	1.69897	1.91566	-inf
7.21212	1.69897	1.91566	-inf
7.31313	1.69897	1.91566	-inf
7.41414	1.69897	1.91566	-inf
7.51515	1.69897	1.91566	-inf
7.61616	1.69897	1.91566	-inf
7.71717	1.69897	1.91566	-inf
7.81818	1.69897	1.91566	-inf
7.91919	1.69897	1.91566	-inf
8.0202	1.69897	1.91566	-inf
8.12121	1.69897	1.91566	-inf
8.22222	1.69897	1.91566	-inf
8.32323	1.69897	1.91566	-inf
8.42424	1.69897	1.91566	-inf
8.52525	1.69897	1.91566	-inf
8.62626	1.69897	1.91566	-inf
8.72727	1.69897	1.91566	-inf
8.82828	1.69897	1.91566	-inf
8.92929	1.69897	1.91566	-inf
9.0303	1.69897	1.91566	-inf
9.13131	1.69897	1.91566	-inf
9.23232	1.69897	1.91566	-inf
9.33333	1.69897	1.91566	-inf
9.43434	1.69897	1.91566	-inf
9.53535	1.69897	1.91566	-inf
9.63636	1.69897	1.91566	-inf
9.73737	1.69897	1.91566	-inf
9.83838	1.69897	1.91566	-inf
9.93939	1.69897	1.91566	-inf
10.0404	1.69897	1.91566	-inf
10.1414	1.69897	1.91566	-inf
10.2424	1.69897	1.91566	-inf
10.3434	1.69897	1.91566	-inf
10.4444	1.69897	1.91566	-inf
10.5455	1.69897	1.91566	-inf
10.6465	1.69897	1.91566	-inf
10.7475	1.69897	1.91566	-inf
10.8485	1.69897	1.91566	-inf
10.9495	1.69897	1.91566	-inf
11.0505	1.69897	1.91566	-inf
11.1515	1.69897	1.91566	-inf
11.2525	1.69897	1.91566	-inf
11.3535	1.69897	1.91566	-inf
11.4545	1.69897	1.91566	-inf
11.5556	1.69897	1.91566	-inf
11.6566	1.69897	1.91566	-inf
11.7576	1.69897	1.91566	-inf
11.8586	1.69897	1.91566	-inf
11.9596	1.69897	1.91566	-inf
12.0606	1.69897	1.91566	-inf
12.1616	1.69897	1.91566	-inf
12.2626	1.69897	1.91566	-inf
12.3636	1.69897	1.91566	-inf
12.4646	1.69897	1.91566	-inf
12.5657	1.69897	1.91566	-inf
12.6667	1.69897	1.91566	-inf
12.7677	1.69897	1.91566	-inf
12.8687	1.69897	1.91566	-inf
12.9697	1.69897	1.91566	-inf
13.0707	1.69897	1.91566	-inf
13.1717	1.69897	1.91566	-inf
13.2727	1.69897	1.91566	-inf
13.3737	1.69897	1.91566	-inf
13.4747	1.69897	1.91566	-inf
13.5758	1.69897	1.91566	-inf
13.6768	1.69897	1.91566	-inf
13.7778	1.69897	1.91566	-inf
13.8788	1.69897	1.91566	-inf
13.9798	1.69897	1.91566	-inf
14.0808	1.69897	1.91566	-inf
14.1818	1.69897	1.91566	-inf
14.2828	1.69897	1.91566	-inf
14.3838	1.69897	1.91566	-inf
14.4848	1.69897	1.91566	-inf
14.5859	1.69897	1.91566	-inf
14.6869	1.69897	1.91566	-inf
14.7879	1.69897	1.91566	-inf
14.8889	1.69897	1.91566	-inf
14.9899	1.69897	1.91566	-inf
15.0909	1.69897	1.91566	-inf
15.1919	1.69897	1.91566	-inf
15.2929	1.69897	1.91566	-inf
15.3939	1.69897	1.91566	-inf
15.4949	1.69897	1.91566	-inf
15.596	1.69897	1.91566	-inf
15.697	1.69897	1.91566	-inf
15.798	1.69897	1.91566	-inf
15.899	1.69897	1.91566	-inf
16	1.69897	1.91566	-inf
