log(E/eV)	z/pc	t/yr	Synchr	IC	IC-Aux	SSC
-5.83275	10	32.7213	37.2488	0	0	0
-5.03964	10	32.7213	37.6602	0	0	27.5246
-4.24654	10	32.7213	38.0496	0	0	28.9068
-3.45344	10	32.7213	38.4239	0	23.687	29.9919
-2.66033	10	32.7213	38.7921	0	26.6815	30.8442
-1.86723	10	32.7213	39.1779	0	29.0616	31.5357
-1.07413	10	32.7213	39.5921	25.1045	31.0316	32.1356
-0.281024	10	32.7213	40.0023	27.6646	32.38	32.6722
0.512079	10	32.7213	40.3996	29.933	33.4314	33.1799
1.30518	10	32.7213	40.762	31.716	34.2214	33.6615
2.09829	10	32.7213	41.0546	32.9777	34.8148	34.1301
2.89139	10	32.7213	41.2519	33.9592	35.3013	34.583
3.68449	10	32.7213	41.354	34.698	35.7356	35.0354
4.4776	10	32.7213	41.3759	35.2654	36.1451	35.464
5.2707	10	32.7213	41.342	35.7356	36.5474	35.9092
6.0638	10	32.7213	41.2828	36.1578	36.9495	36.3275
6.85691	10	32.7213	41.1665	36.5632	37.319	36.7289
7.65001	10	32.7213	40.9271	36.9398	37.6892	37.0992
8.44311	10	32.7213	40.4798	37.2733	38.1576	37.4355
9.23622	10	32.7213	39.6914	37.5443	38.5565	37.7486
10.0293	10	32.7213	38.4486	37.8096	38.8931	38.023
10.8224	10	32.7213	35.3239	37.9644	39.2475	38.2094
11.6155	10	32.7213	26.0302	37.5644	39.2953	38.2654
12.4086	10	32.7213	-37.1787	36.482	39.21	38.029
13.2017	10	32.7213	0	34.8002	38.4135	37.6225
13.9948	10	32.7213	0	33.0005	36.9218	36.9392
14.7879	10	32.7213	0	30.6925	34.706	35.6423
15.581	10	32.7213	0	25.4904	29.5408	31.3441
16.3741	10	32.7213	0	0	0	0
17.1673	10	32.7213	0	0	0	0
-5.54945	10.8264	35.4253	37.9612	0	0	0
-4.75634	10.8264	35.4253	38.3695	0	0	28.0121
-3.96324	10.8264	35.4253	38.7573	0	0	29.344
-3.17014	10.8264	35.4253	39.1303	0	25.6462	30.355
-2.37703	10.8264	35.4253	39.4971	0	28.5404	31.1641
-1.58393	10.8264	35.4253	39.8787	0	30.8198	31.8342
-0.790826	10.8264	35.4253	40.2763	26.9499	32.5116	32.4225
0.00227706	10.8264	35.4253	40.6394	29.4798	33.681	32.9526
0.795381	10.8264	35.4253	40.9388	31.6352	34.5603	33.4549
1.58848	10.8264	35.4253	41.1534	33.1415	35.2501	33.9311
2.38159	10.8264	35.4253	41.2846	34.2262	35.7821	34.3912
3.17469	10.8264	35.4253	41.3495	35.0504	36.2453	34.831
3.96779	10.8264	35.4253	41.3657	35.6895	36.6831	35.2669
4.7609	10.8264	35.4253	41.3415	36.2204	37.0688	35.6666
5.554	10.8264	35.4253	41.287	36.6733	37.4588	36.085
6.3471	10.8264	35.4253	41.2184	37.0858	37.848	36.4683
7.14021	10.8264	35.4253	41.0944	37.471	38.2129	36.8309
7.93331	10.8264	35.4253	40.8452	37.8721	38.5948	37.1673
8.72641	10.8264	35.4253	40.3795	38.1962	39.0339	37.48
9.51952	10.8264	35.4253	39.5477	38.4686	39.3245	37.7601
10.3126	10.8264	35.4253	38.2593	38.7206	39.5448	37.9771
11.1057	10.8264	35.4253	35.1351	38.867	39.6305	38.041
11.8988	10.8264	35.4253	24.9875	38.407	39.5928	37.9282
12.6919	10.8264	35.4253	-43.5322	37.125	39.4355	37.5668
13.485	10.8264	35.4253	0	35.3725	38.7176	37.131
14.2781	10.8264	35.4253	0	33.5595	37.421	36.4434
15.0712	10.8264	35.4253	0	31.2459	35.262	35.1464
15.8643	10.8264	35.4253	0	26.0478	30.1124	30.8487
16.6574	10.8264	35.4253	0	0	0	0
17.4506	10.8264	35.4253	0	0	0	0
-5.54719	11.721	38.3527	37.9218	0	0	0
-4.75409	11.721	38.3527	38.3293	0	0	27.8942
-3.96098	11.721	38.3527	38.7164	0	0	29.2282
-3.16788	11.721	38.3527	39.089	0	25.6521	30.2426
-2.37478	11.721	38.3527	39.4558	0	28.546	31.0537
-1.58167	11.721	38.3527	39.8378	0	30.8247	31.7247
-0.78857	11.721	38.3527	40.2344	26.9552	32.5153	32.3133
0.00453314	11.721	38.3527	40.5945	29.4852	33.6867	32.8435
0.797637	11.721	38.3527	40.8888	31.6397	34.569	33.3459
1.59074	11.721	38.3527	41.0974	33.1455	35.2603	33.822
2.38384	11.721	38.3527	41.2235	34.2329	35.7929	34.2819
3.17695	11.721	38.3527	41.2849	35.0595	36.2562	34.7213
3.97005	11.721	38.3527	41.2992	35.6996	36.6942	35.1568
4.76315	11.721	38.3527	41.2741	36.231	37.08	35.5556
5.55626	11.721	38.3527	41.2204	36.6841	37.4698	35.9734
6.34936	11.721	38.3527	41.1506	37.0966	37.859	36.3559
7.14246	11.721	38.3527	41.0224	37.4817	38.2238	36.7178
7.93557	11.721	38.3527	40.7653	37.883	38.6057	37.0535
8.72867	11.721	38.3527	40.283	38.2072	39.0438	37.3658
9.52177	11.721	38.3527	39.4057	38.4795	39.3322	37.6453
10.3149	11.721	38.3527	38.0573	38.7313	39.5503	37.8613
11.108	11.721	38.3527	34.9338	38.8757	39.6332	37.9233
11.9011	11.721	38.3527	23.8609	38.4136	39.5943	37.809
12.6942	11.721	38.3527	-50.4084	37.1294	39.4357	37.4473
13.4873	11.721	38.3527	0	35.3764	38.7191	37.0119
14.2804	11.721	38.3527	0	33.5632	37.4244	36.3242
15.0735	11.721	38.3527	0	31.2497	35.2658	35.0272
15.8666	11.721	38.3527	0	26.0517	30.1162	30.7298
16.6597	11.721	38.3527	0	0	0	0
17.4528	11.721	38.3527	0	0	0	0
-5.54495	12.6896	41.5221	37.8818	0	0	0
-4.75184	12.6896	41.5221	38.2885	0	0	27.7757
-3.95874	12.6896	41.5221	38.675	0	0	29.1118
-3.16564	12.6896	41.5221	39.0471	0	25.6578	30.1296
-2.37253	12.6896	41.5221	39.414	0	28.5514	30.9425
-1.57943	12.6896	41.5221	39.7966	0	30.8295	31.6144
-0.786326	12.6896	41.5221	40.192	26.9604	32.5187	32.2034
0.00677756	12.6896	41.5221	40.549	29.4904	33.6923	32.7337
0.799881	12.6896	41.5221	40.8381	31.6441	34.5775	33.2362
1.59298	12.6896	41.5221	41.0408	33.1492	35.2702	33.7122
2.38609	12.6896	41.5221	41.1619	34.2394	35.8032	34.1719
3.17919	12.6896	41.5221	41.2202	35.0683	36.2668	34.6109
3.97229	12.6896	41.5221	41.2328	35.7093	36.7049	35.0459
4.7654	12.6896	41.5221	41.2069	36.2411	37.0908	35.4439
5.5585	12.6896	41.5221	41.1544	36.6945	37.4805	35.8611
6.35161	12.6896	41.5221	41.0839	37.1071	37.8696	36.2429
7.14471	12.6896	41.5221	40.9518	37.4921	38.2342	36.604
7.93781	12.6896	41.5221	40.6878	37.8935	38.6162	36.939
8.73092	12.6896	41.5221	40.1904	38.2177	39.0533	37.251
9.52402	12.6896	41.5221	39.2677	38.4901	39.3396	37.5298
10.3171	12.6896	41.5221	37.8413	38.7415	39.5553	37.7448
11.1102	12.6896	41.5221	34.718	38.884	39.6357	37.805
11.9033	12.6896	41.5221	22.6432	38.42	39.5956	37.6892
12.6964	12.6896	41.5221	-57.8509	37.1336	39.4358	37.3275
13.4895	12.6896	41.5221	0	35.38	38.7206	36.8923
14.2826	12.6896	41.5221	0	33.5668	37.4276	36.2046
15.0757	12.6896	41.5221	0	31.2534	35.2694	34.9076
15.8688	12.6896	41.5221	0	26.0555	30.1198	30.6104
16.6619	12.6896	41.5221	0	0	0	0
17.4551	12.6896	41.5221	0	0	0	0
-5.54271	13.7382	44.9533	37.841	0	0	0
-4.74961	13.7382	44.9533	38.247	0	0	27.6565
-3.95651	13.7382	44.9533	38.633	0	0	28.9946
-3.1634	13.7382	44.9533	39.0047	0	25.6633	30.0157
-2.3703	13.7382	44.9533	39.3718	0	28.5566	30.8305
-1.5772	13.7382	44.9533	39.755	0	30.8341	31.5032
-0.784093	13.7382	44.9533	40.1491	26.9654	32.5221	32.0926
0.00901044	13.7382	44.9533	40.5028	29.4954	33.6976	32.6231
0.802114	13.7382	44.9533	40.7867	31.6482	34.5856	33.1256
1.59522	13.7382	44.9533	40.9836	33.1529	35.2797	33.6016
2.38832	13.7382	44.9533	41.0998	34.2457	35.8132	34.0611
3.18142	13.7382	44.9533	41.1551	35.0768	36.2769	34.4997
3.97453	13.7382	44.9533	41.1661	35.7187	36.7152	34.9343
4.76763	13.7382	44.9533	41.1396	36.2509	37.1013	35.3314
5.56073	13.7382	44.9533	41.0888	36.7044	37.4907	35.748
6.35384	13.7382	44.9533	41.0178	37.1171	37.8798	36.1291
7.14694	13.7382	44.9533	40.8822	37.502	38.2443	36.4894
7.94004	13.7382	44.9533	40.612	37.9035	38.6263	36.8239
8.73315	13.7382	44.9533	40.1016	38.2278	39.0624	37.1355
9.52625	13.7382	44.9533	39.1363	38.5003	39.3465	37.4137
10.3194	13.7382	44.9533	37.6103	38.7513	39.56	37.6276
11.1125	13.7382	44.9533	34.4866	38.8918	39.6379	37.686
11.9056	13.7382	44.9533	21.3267	38.426	39.5967	37.5688
12.6987	13.7382	44.9533	-65.9065	37.1376	39.4357	37.2072
13.4918	13.7382	44.9533	0	35.3835	38.7219	36.7724
14.2849	13.7382	44.9533	0	33.5703	37.4308	36.0845
15.078	13.7382	44.9533	0	31.2569	35.2728	34.7874
15.8711	13.7382	44.9533	0	26.0591	30.1233	30.4903
16.6642	13.7382	44.9533	0	0	0	0
17.4573	13.7382	44.9533	0	0	0	0
-5.54049	14.8735	48.6681	37.7996	0	0	0
-4.74739	14.8735	48.6681	38.2048	0	0	27.5367
-3.95429	14.8735	48.6681	38.5903	0	0	28.8768
-3.16118	14.8735	48.6681	38.9617	0	25.6686	29.9011
-2.36808	14.8735	48.6681	39.3292	0	28.5616	30.7177
-1.57497	14.8735	48.6681	39.7131	0	30.8384	31.3912
-0.781872	14.8735	48.6681	40.1056	26.9702	32.5252	31.9809
0.0112319	14.8735	48.6681	40.4559	29.5002	33.7027	32.5116
0.804335	14.8735	48.6681	40.7345	31.6522	34.5934	33.0143
1.59744	14.8735	48.6681	40.9256	33.1563	35.2888	33.4902
2.39054	14.8735	48.6681	41.0372	34.2517	35.8227	33.9495
3.18365	14.8735	48.6681	41.0896	35.085	36.2867	34.3877
3.97675	14.8735	48.6681	41.0992	35.7277	36.7251	34.822
4.76985	14.8735	48.6681	41.0722	36.2602	37.1112	35.2181
5.56296	14.8735	48.6681	41.023	36.714	37.5004	35.6342
6.35606	14.8735	48.6681	40.9518	37.1267	37.8896	36.0145
7.14916	14.8735	48.6681	40.813	37.5114	38.2539	36.3742
7.94227	14.8735	48.6681	40.5373	37.9132	38.6359	36.708
8.73537	14.8735	48.6681	40.016	38.2375	39.071	37.0193
9.52847	14.8735	48.6681	39.0131	38.51	39.353	37.2968
10.3216	14.8735	48.6681	37.3639	38.7607	39.5644	37.5096
11.1147	14.8735	48.6681	34.238	38.8992	39.6399	37.5663
11.9078	14.8735	48.6681	19.9034	38.4317	39.5975	37.4479
12.7009	14.8735	48.6681	-74.6259	37.1414	39.4354	37.0864
13.494	14.8735	48.6681	0	35.3869	38.723	36.652
14.2871	14.8735	48.6681	0	33.5736	37.4337	35.9639
15.0802	14.8735	48.6681	0	31.2603	35.2761	34.6667
15.8733	14.8735	48.6681	0	26.0626	30.1266	30.3697
16.6664	14.8735	48.6681	0	0	0	0
17.4595	14.8735	48.6681	0	0	0	0
-5.53828	16.1026	52.6899	37.7574	0	0	0
-4.74518	16.1026	52.6899	38.162	0	0	27.4162
-3.95208	16.1026	52.6899	38.547	0	0	28.7583
-3.15897	16.1026	52.6899	38.918	0	25.6737	29.7858
-2.36587	16.1026	52.6899	39.286	0	28.5665	30.6041
-1.57276	16.1026	52.6899	39.6708	0	30.8426	31.2783
-0.779661	16.1026	52.6899	40.0617	26.9748	32.5281	31.8685
0.0134421	16.1026	52.6899	40.4084	29.5049	33.7076	32.3994
0.806546	16.1026	52.6899	40.6816	31.656	34.6008	32.9021
1.59965	16.1026	52.6899	40.867	33.1595	35.2975	33.378
2.39275	16.1026	52.6899	40.974	34.2574	35.8318	33.8372
3.18586	16.1026	52.6899	41.0237	35.0927	36.2959	34.275
3.97896	16.1026	52.6899	41.0317	35.7362	36.7345	34.7089
4.77206	16.1026	52.6899	41.0041	36.2691	37.1208	35.1041
5.56517	16.1026	52.6899	40.9566	36.7231	37.5098	35.5197
6.35827	16.1026	52.6899	40.8853	37.1359	37.899	35.8993
7.15137	16.1026	52.6899	40.7436	37.5205	38.2631	36.2582
7.94448	16.1026	52.6899	40.4629	37.9224	38.6451	36.5915
8.73758	16.1026	52.6899	39.9326	38.2467	39.0791	36.9023
9.53068	16.1026	52.6899	38.899	38.5193	39.3591	37.1792
10.3238	16.1026	52.6899	37.1019	38.7696	39.5684	37.391
11.1169	16.1026	52.6899	33.9708	38.9062	39.6416	37.446
11.91	16.1026	52.6899	18.3643	38.437	39.5982	37.3264
12.7031	16.1026	52.6899	-84.064	37.145	39.4349	36.9651
13.4962	16.1026	52.6899	0	35.39	38.724	36.5312
14.2893	16.1026	52.6899	0	33.5767	37.4364	35.8429
15.0824	16.1026	52.6899	0	31.2634	35.2791	34.5454
15.8755	16.1026	52.6899	0	26.0658	30.1297	30.2486
16.6686	16.1026	52.6899	0	0	0	0
17.4617	16.1026	52.6899	0	0	0	0
-5.53608	17.4333	57.044	37.7147	0	0	0
-4.74298	17.4333	57.044	38.1185	0	0	27.2952
-3.94988	17.4333	57.044	38.503	0	0	28.6393
-3.15677	17.4333	57.044	38.8738	0	25.6786	29.6697
-2.36367	17.4333	57.044	39.2425	0	28.5711	30.4898
-1.57057	17.4333	57.044	39.6281	0	30.8466	31.1647
-0.777462	17.4333	57.044	40.0172	26.9791	32.5308	31.7553
0.015641	17.4333	57.044	40.3602	29.5093	33.7122	32.2864
0.808744	17.4333	57.044	40.628	31.6596	34.6079	32.7892
1.60185	17.4333	57.044	40.8077	33.1625	35.3057	33.2651
2.39495	17.4333	57.044	40.9103	34.2628	35.8404	33.7241
3.18805	17.4333	57.044	40.9572	35.1001	36.3047	34.1615
3.98116	17.4333	57.044	40.9637	35.7443	36.7435	34.5951
4.77426	17.4333	57.044	40.9354	36.2776	37.1298	34.9894
5.56737	17.4333	57.044	40.8895	36.7317	37.5186	35.4044
6.36047	17.4333	57.044	40.818	37.1445	37.9078	35.7833
7.15357	17.4333	57.044	40.6734	37.529	38.2718	36.1415
7.94668	17.4333	57.044	40.3883	37.9311	38.6538	36.4742
8.73978	17.4333	57.044	39.8503	38.2554	39.0868	36.7847
9.53288	17.4333	57.044	38.793	38.5281	39.3647	37.0609
10.326	17.4333	57.044	36.8253	38.778	39.5719	37.2716
11.1191	17.4333	57.044	33.6835	38.9127	39.6429	37.325
11.9122	17.4333	57.044	16.6999	38.4419	39.5985	37.2043
12.7053	17.4333	57.044	-94.2801	37.1483	39.4341	36.8434
13.4984	17.4333	57.044	0	35.3929	38.7247	36.4099
14.2915	17.4333	57.044	0	33.5795	37.4389	35.7214
15.0846	17.4333	57.044	0	31.2663	35.2819	34.4237
15.8777	17.4333	57.044	0	26.0688	30.1325	30.1268
16.6708	17.4333	57.044	0	0	0	0
17.4639	17.4333	57.044	0	0	0	0
-5.5339	18.8739	61.7579	37.6714	0	0	0
-4.74079	18.8739	61.7579	38.0744	0	0	27.1737
-3.94769	18.8739	61.7579	38.4584	0	0	28.5197
-3.15458	18.8739	61.7579	38.8291	0	25.6833	29.5531
-2.36148	18.8739	61.7579	39.1985	0	28.5755	30.3747
-1.56838	18.8739	61.7579	39.585	0	30.8503	31.0504
-0.775275	18.8739	61.7579	39.9722	26.9833	32.5333	31.6413
0.0178289	18.8739	61.7579	40.3113	29.5135	33.7164	32.1726
0.810932	18.8739	61.7579	40.5736	31.6629	34.6145	32.6756
1.60404	18.8739	61.7579	40.7477	33.1653	35.3135	33.1515
2.39714	18.8739	61.7579	40.846	34.2679	35.8486	33.6103
3.19024	18.8739	61.7579	40.8902	35.107	36.313	34.0473
3.98335	18.8739	61.7579	40.895	35.752	36.7519	34.4806
4.77645	18.8739	61.7579	40.8659	36.2855	37.1384	34.874
5.56955	18.8739	61.7579	40.8212	36.7398	37.527	35.2884
6.36266	18.8739	61.7579	40.7494	37.1527	37.9162	35.6667
7.15576	18.8739	61.7579	40.6021	37.537	38.28	36.0242
7.94886	18.8739	61.7579	40.3125	37.9392	38.662	36.3563
8.74197	18.8739	61.7579	39.768	38.2637	39.0939	36.6665
9.53507	18.8739	61.7579	38.6936	38.5363	39.3697	36.9419
10.3282	18.8739	61.7579	36.5367	38.786	39.575	37.1516
11.1213	18.8739	61.7579	33.3743	38.9186	39.6438	37.2033
11.9144	18.8739	61.7579	14.9	38.4465	39.5985	37.0817
12.7075	18.8739	61.7579	-105.338	37.1512	39.433	36.7212
13.5006	18.8739	61.7579	0	35.3954	38.7251	36.2882
14.2937	18.8739	61.7579	0	33.582	37.4411	35.5994
15.0868	18.8739	61.7579	0	31.269	35.2844	34.3014
15.8799	18.8739	61.7579	0	26.0716	30.1351	30.0045
16.673	18.8739	61.7579	0	0	0	0
17.4661	18.8739	61.7579	0	0	0	0
-5.53172	20.4336	66.8614	37.6276	0	0	0
-4.73861	20.4336	66.8614	38.0298	0	0	27.0519
-3.94551	20.4336	66.8614	38.4134	0	0	28.3996
-3.15241	20.4336	66.8614	38.7839	0	25.6876	29.4359
-2.3593	20.4336	66.8614	39.1541	0	28.5796	30.2591
-1.5662	20.4336	66.8614	39.5416	0	30.8538	30.9355
-0.773098	20.4336	66.8614	39.9268	26.9872	32.5355	31.5267
0.0200058	20.4336	66.8614	40.2618	29.5174	33.7204	32.0582
0.813109	20.4336	66.8614	40.5186	31.6659	34.6206	32.5614
1.60621	20.4336	66.8614	40.6871	33.1678	35.3207	33.0373
2.39932	20.4336	66.8614	40.7812	34.2726	35.8562	33.4959
3.19242	20.4336	66.8614	40.8226	35.1135	36.3207	33.9326
3.98552	20.4336	66.8614	40.8257	35.7591	36.7598	34.3654
4.77863	20.4336	66.8614	40.7954	36.2929	37.1463	34.758
5.57173	20.4336	66.8614	40.7517	36.7473	37.5347	35.1719
6.36483	20.4336	66.8614	40.6794	37.1603	37.924	35.5494
7.15794	20.4336	66.8614	40.5291	37.5445	38.2876	35.9063
7.95104	20.4336	66.8614	40.2351	37.9469	38.6696	36.2378
8.74414	20.4336	66.8614	39.6846	38.2713	39.1004	36.5476
9.53725	20.4336	66.8614	38.5983	38.5441	39.3743	36.8223
10.3304	20.4336	66.8614	36.2418	38.7933	39.5776	37.0309
11.1235	20.4336	66.8614	33.0415	38.924	39.6444	37.0811
11.9166	20.4336	66.8614	12.9531	38.4505	39.5982	36.9586
12.7097	20.4336	66.8614	-117.309	37.1538	39.4316	36.5987
13.5028	20.4336	66.8614	0	35.3977	38.7252	36.1662
14.2959	20.4336	66.8614	0	33.5842	37.443	35.4771
15.089	20.4336	66.8614	0	31.2712	35.2866	34.1787
15.8821	20.4336	66.8614	0	26.074	30.1373	29.8818
16.6752	20.4336	66.8614	0	0	0	0
17.4683	20.4336	66.8614	0	0	0	0
-5.52955	22.1222	72.3866	37.5834	0	0	0
-4.73645	22.1222	72.3866	37.9848	0	0	26.9297
-3.94335	22.1222	72.3866	38.3678	0	0	28.2793
-3.15024	22.1222	72.3866	38.7382	0	25.6917	29.3182
-2.35714	22.1222	72.3866	39.1093	0	28.5834	30.1429
-1.56404	22.1222	72.3866	39.4979	0	30.8569	30.82
-0.770932	22.1222	72.3866	39.8809	26.9907	32.5374	31.4116
0.0221719	22.1222	72.3866	40.2117	29.521	33.7239	31.9433
0.815275	22.1222	72.3866	40.4629	31.6686	34.6263	32.4466
1.60838	22.1222	72.3866	40.626	33.1699	35.3274	32.9225
2.40148	22.1222	72.3866	40.7159	34.2769	35.8631	33.3809
3.19459	22.1222	72.3866	40.7546	35.1194	36.3279	33.8172
3.98769	22.1222	72.3866	40.7556	35.7656	36.7671	34.2497
4.78079	22.1222	72.3866	40.7239	36.2997	37.1537	34.6413
5.5739	22.1222	72.3866	40.6807	36.7543	37.5419	35.0547
6.367	22.1222	72.3866	40.6076	37.1673	37.9312	35.4316
7.1601	22.1222	72.3866	40.4542	37.5514	38.2946	35.7878
7.95321	22.1222	72.3866	40.1556	37.9539	38.6766	36.1188
8.74631	22.1222	72.3866	39.5993	38.2784	39.1064	36.4281
9.53941	22.1222	72.3866	38.5047	38.5512	39.3782	36.7022
10.3325	22.1222	72.3866	35.9507	38.8	39.5797	36.9096
11.1256	22.1222	72.3866	32.6831	38.9288	39.6445	36.9583
11.9187	22.1222	72.3866	10.8473	38.454	39.5974	36.8351
12.7118	22.1222	72.3866	-130.266	37.156	39.4298	36.4757
13.5049	22.1222	72.3866	0	35.3995	38.7249	36.0439
14.298	22.1222	72.3866	0	33.586	37.4444	35.3543
15.0911	22.1222	72.3866	0	31.2731	35.2884	34.0556
15.8842	22.1222	72.3866	0	26.0759	30.139	29.7586
16.6773	22.1222	72.3866	0	0	0	0
17.4704	22.1222	72.3866	0	0	0	0
-5.5274	23.9503	78.3684	37.5389	0	0	0
-4.73429	23.9503	78.3684	37.9394	0	0	26.8074
-3.94119	23.9503	78.3684	38.322	0	0	28.1587
-3.14809	23.9503	78.3684	38.6922	0	25.6954	29.2002
-2.35498	23.9503	78.3684	39.0642	0	28.5867	30.0263
-1.56188	23.9503	78.3684	39.4539	0	30.8596	30.704
-0.768776	23.9503	78.3684	39.8346	26.9939	32.5388	31.2959
0.0243272	23.9503	78.3684	40.161	29.5242	33.727	31.8278
0.817431	23.9503	78.3684	40.4065	31.6709	34.6314	32.3313
1.61053	23.9503	78.3684	40.5643	33.1716	35.3334	32.8072
2.40364	23.9503	78.3684	40.6502	34.2806	35.8695	33.2654
3.19674	23.9503	78.3684	40.686	35.1248	36.3343	33.7013
3.98984	23.9503	78.3684	40.6849	35.7714	36.7737	34.1335
4.78295	23.9503	78.3684	40.6515	36.3058	37.1604	34.5242
5.57605	23.9503	78.3684	40.6083	36.7605	37.5484	34.937
6.36915	23.9503	78.3684	40.5341	37.1736	37.9376	35.3132
7.16226	23.9503	78.3684	40.3772	37.5575	38.301	35.6688
7.95536	23.9503	78.3684	40.0736	37.9602	38.6829	35.9992
8.74847	23.9503	78.3684	39.5113	38.2848	39.1116	36.3082
9.54157	23.9503	78.3684	38.4108	38.5576	39.3815	36.5815
10.3347	23.9503	78.3684	35.6781	38.806	39.5811	36.7878
11.1278	23.9503	78.3684	32.297	38.9328	39.644	36.835
11.9209	23.9503	78.3684	8.56937	38.457	39.5961	36.7111
12.714	23.9503	78.3684	-144.293	37.1576	39.4275	36.3525
13.5071	23.9503	78.3684	0	35.4008	38.7241	35.9212
14.3002	23.9503	78.3684	0	33.5873	37.4454	35.2314
15.0933	23.9503	78.3684	0	31.2745	35.2896	33.9322
15.8864	23.9503	78.3684	0	26.0774	30.1403	29.6352
16.6795	23.9503	78.3684	0	0	0	0
17.4726	23.9503	78.3684	0	0	0	0
-5.52525	25.9294	84.8445	37.4942	0	0	0
-4.73215	25.9294	84.8445	37.8938	0	0	26.6851
-3.93905	25.9294	84.8445	38.2758	0	0	28.0379
-3.14594	25.9294	84.8445	38.6459	0	25.6985	29.082
-2.35284	25.9294	84.8445	39.0189	0	28.5896	29.9095
-1.55974	25.9294	84.8445	39.4095	0	30.8618	30.5878
-0.766632	25.9294	84.8445	39.7878	26.9966	32.5398	31.1799
0.0264719	25.9294	84.8445	40.1098	29.5268	33.7295	31.712
0.819575	25.9294	84.8445	40.3496	31.6727	34.6357	32.2156
1.61268	25.9294	84.8445	40.5021	33.1728	35.3387	32.6915
2.40578	25.9294	84.8445	40.584	34.2838	35.875	33.1495
3.19889	25.9294	84.8445	40.6171	35.1294	36.34	33.585
3.99199	25.9294	84.8445	40.6137	35.7766	36.7795	34.0168
4.78509	25.9294	84.8445	40.5781	36.3112	37.1663	34.4066
5.5782	25.9294	84.8445	40.5345	36.766	37.5541	34.8189
6.3713	25.9294	84.8445	40.4588	37.1792	37.9434	35.1944
7.1644	25.9294	84.8445	40.2981	37.5629	38.3065	35.5493
7.95751	25.9294	84.8445	39.9888	37.9658	38.6884	35.8792
8.75061	25.9294	84.8445	39.42	38.2904	39.116	36.1877
9.54371	25.9294	84.8445	38.3148	38.5632	39.384	36.4602
10.3368	25.9294	84.8445	35.4386	38.8112	39.5818	36.6655
11.1299	25.9294	84.8445	31.8809	38.9361	39.6428	36.7113
11.923	25.9294	84.8445	6.1051	38.4592	39.5942	36.5867
12.7161	25.9294	84.8445	-159.477	37.1586	39.4246	36.2289
13.5092	25.9294	84.8445	0	35.4015	38.7228	35.7983
14.3023	25.9294	84.8445	0	33.5881	37.4457	35.1081
15.0954	25.9294	84.8445	0	31.2753	35.2903	33.8086
15.8885	25.9294	84.8445	0	26.0783	30.1411	29.5115
16.6816	25.9294	84.8445	0	0	0	0
17.4747	25.9294	84.8445	0	0	0	0
-5.52312	28.0722	91.8558	37.4494	0	0	0
-4.73001	28.0722	91.8558	37.8481	0	0	26.5628
-3.93691	28.0722	91.8558	38.2295	0	0	27.9172
-3.14381	28.0722	91.8558	38.5994	0	25.7011	28.9637
-2.3507	28.0722	91.8558	38.9734	0	28.5919	29.7924
-1.5576	28.0722	91.8558	39.365	0	30.8634	30.4713
-0.764497	28.0722	91.8558	39.7407	26.9986	32.5401	31.0637
0.028606	28.0722	91.8558	40.0581	29.5289	33.7313	31.5959
0.821709	28.0722	91.8558	40.2921	31.6739	34.6393	32.0996
1.61481	28.0722	91.8558	40.4394	33.1734	35.3431	32.5755
2.40792	28.0722	91.8558	40.5175	34.2862	35.8796	33.0333
3.20102	28.0722	91.8558	40.5477	35.1332	36.3447	33.4684
3.99412	28.0722	91.8558	40.5418	35.7808	36.7843	33.8998
4.78723	28.0722	91.8558	40.504	36.3156	37.1713	34.2886
5.58033	28.0722	91.8558	40.4594	36.7706	37.5589	34.7004
6.37343	28.0722	91.8558	40.3817	37.1838	37.9482	35.0753
7.16654	28.0722	91.8558	40.2167	37.5674	38.3111	35.4295
7.95964	28.0722	91.8558	39.901	37.9704	38.693	35.7588
8.75274	28.0722	91.8558	39.3248	38.295	39.1194	36.0669
9.54585	28.0722	91.8558	38.2156	38.5679	39.3856	36.3386
10.339	28.0722	91.8558	35.2388	38.8155	39.5817	36.5427
11.1321	28.0722	91.8558	31.4323	38.9385	39.6409	36.587
11.9252	28.0722	91.8558	3.43909	38.4606	39.5916	36.462
12.7183	28.0722	91.8558	-175.913	37.1589	39.421	36.1051
13.5114	28.0722	91.8558	0	35.4015	38.7207	35.6753
14.3045	28.0722	91.8558	0	33.5881	37.4454	34.9848
15.0976	28.0722	91.8558	0	31.2754	35.2903	33.6848
15.8907	28.0722	91.8558	0	26.0785	30.141	29.3877
16.6838	28.0722	91.8558	0	0	0	0
17.4769	28.0722	91.8558	0	0	0	0
-5.52099	30.392	99.4465	37.4047	0	0	0
-4.72789	30.392	99.4465	37.8024	0	0	26.4407
-3.93479	30.392	99.4465	38.1831	0	0	27.7966
-3.14168	30.392	99.4465	38.5528	0	25.7028	28.8453
-2.34858	30.392	99.4465	38.9277	0	28.5933	29.6753
-1.55548	30.392	99.4465	39.3201	0	30.8642	30.3547
-0.762374	30.392	99.4465	39.6932	26.9999	32.5396	30.9473
0.0307297	30.392	99.4465	40.0058	29.5302	33.7322	31.4796
0.823833	30.392	99.4465	40.2341	31.6743	34.6418	31.9834
1.61694	30.392	99.4465	40.3763	33.1731	35.3465	32.4592
2.41004	30.392	99.4465	40.4506	34.2877	35.8832	32.9168
3.20314	30.392	99.4465	40.478	35.1359	36.3484	33.3514
3.99625	30.392	99.4465	40.4696	35.784	36.7881	33.7824
4.78935	30.392	99.4465	40.4292	36.319	37.1752	34.1704
5.58245	30.392	99.4465	40.3832	36.7741	37.5626	34.5816
6.37556	30.392	99.4465	40.3031	37.1873	37.9519	34.9558
7.16866	30.392	99.4465	40.1331	37.5708	38.3147	35.3093
7.96176	30.392	99.4465	39.8101	37.974	38.6965	35.638
8.75487	30.392	99.4465	39.2254	38.2986	39.1218	35.9457
9.54797	30.392	99.4465	38.1121	38.5716	39.3861	36.2165
10.3411	30.392	99.4465	35.073	38.8188	39.5805	36.4194
11.1342	30.392	99.4465	30.9485	38.9398	39.638	36.4624
11.9273	30.392	99.4465	0.554669	38.461	39.588	36.337
12.7204	30.392	99.4465	-193.706	37.1582	39.4164	35.981
13.5135	30.392	99.4465	0	35.4006	38.7177	35.5521
14.3066	30.392	99.4465	0	33.5871	37.4441	34.8613
15.0997	30.392	99.4465	0	31.2745	35.2893	33.561
15.8928	30.392	99.4465	0	26.0777	30.1401	29.2639
16.6859	30.392	99.4465	0	0	0	0
17.479	30.392	99.4465	0	0	0	0
-5.51888	32.9034	107.664	37.3601	0	0	0
-4.72578	32.9034	107.664	37.7568	0	0	26.3188
-3.93267	32.9034	107.664	38.1368	0	0	27.6762
-3.13957	32.9034	107.664	38.5062	0	25.7035	28.7271
-2.34647	32.9034	107.664	38.882	0	28.5938	29.5582
-1.55336	32.9034	107.664	39.2751	0	30.8639	30.238
-0.76026	32.9034	107.664	39.6454	27.0001	32.5381	30.8309
0.0328431	32.9034	107.664	39.9532	29.5304	33.732	31.3633
0.825947	32.9034	107.664	40.1757	31.6736	34.6431	31.8671
1.61905	32.9034	107.664	40.3129	33.1718	35.3485	32.3428
2.41215	32.9034	107.664	40.3835	34.288	35.8855	32.8001
3.20526	32.9034	107.664	40.4082	35.1375	36.3508	33.2343
3.99836	32.9034	107.664	40.397	35.7859	36.7906	33.6649
4.79146	32.9034	107.664	40.354	36.3211	37.1778	34.0519
5.58457	32.9034	107.664	40.306	36.7763	37.5649	34.4625
6.37767	32.9034	107.664	40.223	37.1896	37.9543	34.8361
7.17077	32.9034	107.664	40.0475	37.5729	38.3169	35.1889
7.96388	32.9034	107.664	39.7162	37.9762	38.6987	35.517
8.75698	32.9034	107.664	39.1213	38.3009	39.1229	35.8242
9.55008	32.9034	107.664	38.0034	38.5739	39.3854	36.0941
10.3432	32.9034	107.664	34.9284	38.8206	39.5781	36.2958
11.1363	32.9034	107.664	30.4267	38.9398	39.6339	36.3375
11.9294	32.9034	107.664	-2.56621	38.4602	39.5833	36.2118
12.7225	32.9034	107.664	-212.967	37.1563	39.4107	35.8568
13.5156	32.9034	107.664	0	35.3985	38.7136	35.4288
14.3087	32.9034	107.664	0	33.5851	37.4417	34.7379
15.1018	32.9034	107.664	0	31.2726	35.2872	33.4372
15.8949	32.9034	107.664	0	26.0759	30.138	29.1401
16.688	32.9034	107.664	0	0	0	0
17.4811	32.9034	107.664	0	0	0	0
-5.51678	35.6225	116.561	37.3157	0	0	0
-4.72367	35.6225	116.561	37.7113	0	0	26.1973
-3.93057	35.6225	116.561	38.0906	0	0	27.5561
-3.13747	35.6225	116.561	38.4597	0	25.7029	28.609
-2.34436	35.6225	116.561	38.8362	0	28.5928	29.4413
-1.55126	35.6225	116.561	39.2299	0	30.8623	30.1215
-0.758157	35.6225	116.561	39.5973	26.999	32.5352	30.7145
0.0349462	35.6225	116.561	39.9001	29.5293	33.7303	31.2469
0.82805	35.6225	116.561	40.1169	31.6716	34.6429	31.7507
1.62115	35.6225	116.561	40.2492	33.1691	35.349	32.2263
2.41426	35.6225	116.561	40.3163	34.2869	35.8861	32.6833
3.20736	35.6225	116.561	40.3381	35.1375	36.3515	33.117
4.00046	35.6225	116.561	40.3243	35.7862	36.7915	33.5472
4.79357	35.6225	116.561	40.2785	36.3215	37.1788	33.9332
5.58667	35.6225	116.561	40.2283	36.7768	37.5657	34.3434
6.37977	35.6225	116.561	40.1418	37.1902	37.9551	34.7163
7.17288	35.6225	116.561	39.9602	37.5733	38.3176	35.0684
7.96598	35.6225	116.561	39.6191	37.9768	38.6993	35.3958
8.75908	35.6225	116.561	39.0122	38.3015	39.1223	35.7024
9.55219	35.6225	116.561	37.8889	38.5746	39.383	35.9714
10.3453	35.6225	116.561	34.7935	38.8209	39.5741	36.1719
11.1384	35.6225	116.561	29.8636	38.9382	39.6283	36.2123
11.9315	35.6225	116.561	-5.94309	38.4578	39.577	36.0863
12.7246	35.6225	116.561	-233.818	37.153	39.4036	35.7325
13.5177	35.6225	116.561	0	35.395	38.708	35.3054
14.3108	35.6225	116.561	0	33.5815	37.4378	34.6145
15.1039	35.6225	116.561	0	31.2691	35.2836	33.3136
15.897	35.6225	116.561	0	26.0725	30.1344	29.0165
16.6901	35.6225	116.561	0	0	0	0
17.4832	35.6225	116.561	0	0	0	0
-5.51468	38.5662	126.194	37.2715	0	0	0
-4.72158	38.5662	126.194	37.6661	0	0	26.0761
-3.92848	38.5662	126.194	38.0446	0	0	27.4362
-3.13537	38.5662	126.194	38.4134	0	25.7004	28.4912
-2.34227	38.5662	126.194	38.7905	0	28.59	29.3244
-1.54917	38.5662	126.194	39.1845	0	30.8588	30.005
-0.756064	38.5662	126.194	39.549	26.996	32.5304	30.5981
0.0370392	38.5662	126.194	39.8467	29.5263	33.7267	31.1307
0.830143	38.5662	126.194	40.0578	31.6677	34.6406	31.6344
1.62325	38.5662	126.194	40.1852	33.1645	35.3473	32.1098
2.41635	38.5662	126.194	40.2489	34.2838	35.8846	32.5664
3.20945	38.5662	126.194	40.2681	35.1354	36.3501	32.9996
4.00256	38.5662	126.194	40.2517	35.7844	36.7902	33.4295
4.79566	38.5662	126.194	40.2032	36.3198	37.1776	33.8145
5.58876	38.5662	126.194	40.1504	36.7752	37.5643	34.2241
6.38187	38.5662	126.194	40.06	37.1886	37.9537	34.5963
7.17497	38.5662	126.194	39.8714	37.5716	38.316	34.9477
7.96807	38.5662	126.194	39.5193	37.9753	38.6977	35.2745
8.76118	38.5662	126.194	38.8979	38.3	39.1195	35.5805
9.55428	38.5662	126.194	37.7678	38.5731	39.3785	35.8485
10.3474	38.5662	126.194	34.6602	38.819	39.568	36.0478
11.1405	38.5662	126.194	29.2559	38.9344	39.6207	36.0869
11.9336	38.5662	126.194	-9.59712	38.4533	39.5688	35.9607
12.7267	38.5662	126.194	-256.391	37.1476	39.3944	35.6082
13.5198	38.5662	126.194	0	35.3894	38.7004	35.1821
14.3129	38.5662	126.194	0	33.576	37.4319	34.4912
15.106	38.5662	126.194	0	31.2636	35.278	33.1901
15.8991	38.5662	126.194	0	26.0671	30.1289	28.8931
16.6922	38.5662	126.194	0	0	0	0
17.4853	38.5662	126.194	0	0	0	0
-5.5126	41.7532	136.622	37.2275	0	0	0
-4.7195	41.7532	136.622	37.6211	0	0	25.9554
-3.9264	41.7532	136.622	37.9988	0	0	27.3168
-3.13329	41.7532	136.622	38.3672	0	25.6952	28.3736
-2.34019	41.7532	136.622	38.7449	0	28.5845	29.2078
-1.54708	41.7532	136.622	39.139	0	30.8526	29.8887
-0.753981	41.7532	136.622	39.5004	26.9903	32.523	30.482
0.0391221	41.7532	136.622	39.7931	29.5206	33.7203	31.0145
0.832226	41.7532	136.622	39.9984	31.6611	34.6355	31.5181
1.62533	41.7532	136.622	40.1212	33.1572	35.3428	31.9933
2.41843	41.7532	136.622	40.1815	34.2778	35.8802	32.4496
3.21154	41.7532	136.622	40.1982	35.1304	36.3457	32.8823
4.00464	41.7532	136.622	40.1792	35.7796	36.7859	33.3116
4.79774	41.7532	136.622	40.1282	36.3152	37.1734	33.6958
5.59085	41.7532	136.622	40.0727	36.7707	37.5599	34.1048
6.38395	41.7532	136.622	39.9779	37.1841	37.9494	34.4763
7.17705	41.7532	136.622	39.7817	37.567	38.3115	34.8269
7.97016	41.7532	136.622	39.4169	37.9708	38.6931	35.153
8.76326	41.7532	136.622	38.7781	38.2955	39.1138	35.4584
9.55636	41.7532	136.622	37.6395	38.5687	39.371	35.7254
10.3495	41.7532	136.622	34.5243	38.8141	39.559	35.9234
11.1426	41.7532	136.622	28.5999	38.9276	39.6102	35.9613
11.9357	41.7532	136.622	-13.5512	38.4459	39.5577	35.8349
12.7288	41.7532	136.622	-280.826	37.1395	39.3824	35.4838
13.5219	41.7532	136.622	0	35.3811	38.6901	35.0589
14.315	41.7532	136.622	0	33.5676	37.4232	34.368
15.1081	41.7532	136.622	0	31.2554	35.2696	33.0668
15.9012	41.7532	136.622	0	26.059	30.1205	28.77
16.6943	41.7532	136.622	0	0	0	0
17.4874	41.7532	136.622	0	0	0	0
-5.51053	45.2035	147.912	37.1837	0	0	0
-4.71743	45.2035	147.912	37.5763	0	0	25.835
-3.92432	45.2035	147.912	37.9532	0	0	27.1976
-3.13122	45.2035	147.912	38.3212	0	25.6858	28.2562
-2.33812	45.2035	147.912	38.6994	0	28.5748	29.0913
-1.54501	45.2035	147.912	39.0933	0	30.8422	29.7726
-0.751908	45.2035	147.912	39.4516	26.9804	32.5112	30.3659
0.0411951	45.2035	147.912	39.7392	29.5106	33.7096	30.8984
0.834299	45.2035	147.912	39.9389	31.6502	34.6259	31.4019
1.6274	45.2035	147.912	40.0571	33.1456	35.3337	31.8769
2.42051	45.2035	147.912	40.1143	34.2675	35.8713	32.3327
3.21361	45.2035	147.912	40.1286	35.1209	36.3368	32.7649
4.00671	45.2035	147.912	40.1072	35.7704	36.7771	33.1938
4.79982	45.2035	147.912	40.054	36.306	37.1648	33.577
5.59292	45.2035	147.912	39.9957	36.7616	37.5511	33.9854
6.38602	45.2035	147.912	39.8962	37.1751	37.9405	34.3562
7.17913	45.2035	147.912	39.6916	37.5578	38.3025	34.7061
7.97223	45.2035	147.912	39.3126	37.9618	38.684	35.0315
8.76533	45.2035	147.912	38.6528	38.2865	39.1035	35.3362
9.55844	45.2035	147.912	37.5032	38.5597	39.359	35.6021
10.3515	45.2035	147.912	34.3832	38.8047	39.5455	35.7988
11.1446	45.2035	147.912	27.8916	38.9164	39.5953	35.8355
11.9377	45.2035	147.912	-17.8301	38.4341	39.5423	35.7091
12.7309	45.2035	147.912	0	37.1269	39.3661	35.3594
13.524	45.2035	147.912	0	35.3683	38.6753	34.9357
14.3171	45.2035	147.912	0	33.5549	37.4101	34.245
15.1102	45.2035	147.912	0	31.2427	35.2568	32.9438
15.9033	45.2035	147.912	0	26.0464	30.1077	28.6471
16.6964	45.2035	147.912	0	0	0	0
17.4895	45.2035	147.912	0	0	0	0
-5.50847	48.939	160.135	37.14	0	0	0
-4.71536	48.939	160.135	37.5317	0	0	25.715
-3.92226	48.939	160.135	37.9078	0	0	27.0787
-3.12916	48.939	160.135	38.2754	0	25.6676	28.139
-2.33605	48.939	160.135	38.654	0	28.5563	28.975
-1.54295	48.939	160.135	39.0475	0	30.8231	29.6566
-0.749845	48.939	160.135	39.4026	26.9618	32.4908	30.2499
0.0432583	48.939	160.135	39.685	29.492	33.6901	30.7823
0.836362	48.939	160.135	39.8792	31.6306	34.6074	31.2858
1.62947	48.939	160.135	39.993	33.1253	35.3157	31.7605
2.42257	48.939	160.135	40.0472	34.2484	35.8534	32.2159
3.21567	48.939	160.135	40.0594	35.1026	36.319	32.6474
4.00878	48.939	160.135	40.0358	35.7522	36.7594	33.0759
4.80188	48.939	160.135	39.9809	36.288	37.1472	33.4582
5.59498	48.939	160.135	39.9197	36.7436	37.5332	33.866
6.38809	48.939	160.135	39.8152	37.1571	37.9227	34.2362
7.18119	48.939	160.135	39.6019	37.5396	38.2845	34.5853
7.97429	48.939	160.135	39.2071	37.9438	38.6659	34.9099
8.7674	48.939	160.135	38.5222	38.2686	39.0842	35.2139
9.5605	48.939	160.135	37.358	38.5418	39.3381	35.4788
10.3536	48.939	160.135	34.2351	38.7863	39.5231	35.6741
11.1467	48.939	160.135	27.1266	38.8961	39.5715	35.7096
11.9398	48.939	160.135	-22.4608	38.4134	39.518	35.5832
12.7329	48.939	160.135	0	37.1054	39.3409	35.235
13.526	48.939	160.135	0	35.3467	38.6517	34.8125
14.3191	48.939	160.135	0	33.5334	37.3882	34.1222
15.1122	48.939	160.135	0	31.2213	35.2352	32.8209
15.9053	48.939	160.135	0	26.025	30.0861	28.5244
16.6984	48.939	160.135	0	0	0	0
17.4915	48.939	160.135	0	0	0	0
-5.50641	52.9832	173.368	37.0964	0	0	0
-4.71331	52.9832	173.368	37.4871	0	0	25.5952
-3.92021	52.9832	173.368	37.8625	0	0	26.96
-3.1271	52.9832	173.368	38.2297	0	25.6351	28.0219
-2.334	52.9832	173.368	38.6086	0	28.5235	28.8587
-1.5409	52.9832	173.368	39.0015	0	30.7895	29.5406
-0.747792	52.9832	173.368	39.3533	26.9288	32.4559	30.134
0.0453117	52.9832	173.368	39.6307	29.4589	33.656	30.6663
0.838415	52.9832	173.368	39.8194	31.5966	34.5743	31.1696
1.63152	52.9832	173.368	39.929	33.0906	35.2831	31.644
2.42462	52.9832	173.368	39.9804	34.2147	35.8208	32.099
3.21773	52.9832	173.368	39.9906	35.0696	36.2865	32.5299
4.01083	52.9832	173.368	39.9652	35.7194	36.727	32.958
4.80393	52.9832	173.368	39.909	36.2552	37.1149	33.3393
5.59704	52.9832	173.368	39.8453	36.711	37.5007	33.7466
6.39014	52.9832	173.368	39.7357	37.1245	37.8903	34.116
7.18324	52.9832	173.368	39.5131	37.5068	38.2519	34.4644
7.97635	52.9832	173.368	39.1013	37.9111	38.6332	34.7883
8.76945	52.9832	173.368	38.3867	38.2359	39.0503	35.0915
9.56255	52.9832	173.368	37.2033	38.5093	39.3026	35.3552
10.3557	52.9832	173.368	34.0789	38.7532	39.4861	35.5492
11.1488	52.9832	173.368	26.3004	38.8613	39.5332	35.5836
11.9419	52.9832	173.368	-27.4722	38.3781	39.4792	35.4572
12.735	52.9832	173.368	0	37.0695	39.3012	35.1105
13.5281	52.9832	173.368	0	35.3106	38.6137	34.6894
14.3212	52.9832	173.368	0	33.4973	37.3517	33.9995
15.1143	52.9832	173.368	0	31.1853	35.199	32.6982
15.9074	52.9832	173.368	0	25.9891	30.05	28.4018
16.7005	52.9832	173.368	0	0	0	0
17.4936	52.9832	173.368	0	0	0	0
-5.50437	57.3615	187.694	37.0527	0	0	0
-4.71127	57.3615	187.694	37.4426	0	0	25.4754
-3.91816	57.3615	187.694	37.8172	0	0	26.8413
-3.12506	57.3615	187.694	38.1841	0	25.6131	27.9047
-2.33195	57.3615	187.694	38.5633	0	28.5012	28.7424
-1.53885	57.3615	187.694	38.9554	0	30.7665	29.4245
-0.745748	57.3615	187.694	39.3038	26.9064	32.4315	30.0179
0.0473554	57.3615	187.694	39.5761	29.4364	33.6325	30.5503
0.840459	57.3615	187.694	39.7595	31.5732	34.5516	31.0534
1.63356	57.3615	187.694	39.865	33.0664	35.2608	31.5275
2.42667	57.3615	187.694	39.9139	34.1915	35.7986	31.982
3.21977	57.3615	187.694	39.9224	35.0471	36.2643	32.4123
4.01287	57.3615	187.694	39.8955	35.697	36.7049	32.84
4.80598	57.3615	187.694	39.8385	36.2328	37.0929	33.2203
5.59908	57.3615	187.694	39.7725	36.6886	37.4785	33.6271
6.39218	57.3615	187.694	39.6578	37.1021	37.8681	33.9958
7.18529	57.3615	187.694	39.426	37.4844	38.2296	34.3434
7.97839	57.3615	187.694	38.9963	37.8888	38.6108	34.6665
8.77149	57.3615	187.694	38.247	38.2136	39.0267	34.9689
9.5646	57.3615	187.694	37.0382	38.487	39.2774	35.2315
10.3577	57.3615	187.694	33.9132	38.7305	39.4595	35.4242
11.1508	57.3615	187.694	25.4077	38.8367	39.5052	35.4574
11.9439	57.3615	187.694	-32.8958	38.3532	39.4507	35.3311
12.737	57.3615	187.694	0	37.0439	39.2719	34.986
13.5301	57.3615	187.694	0	35.285	38.586	34.5663
14.3232	57.3615	187.694	0	33.4716	37.3257	33.8769
15.1163	57.3615	187.694	0	31.1597	35.1733	32.5756
15.9094	57.3615	187.694	0	25.9636	30.0243	28.2794
16.7025	57.3615	187.694	0	0	0	0
17.4956	57.3615	187.694	0	0	0	0
-5.50233	62.1017	203.205	37.0088	0	0	0
-4.70923	62.1017	203.205	37.398	0	0	25.3557
-3.91613	62.1017	203.205	37.7719	0	0	26.7226
-3.12302	62.1017	203.205	38.1385	0	25.5937	27.7875
-2.32992	62.1017	203.205	38.518	0	28.4814	28.6259
-1.53682	62.1017	203.205	38.909	0	30.746	29.3083
-0.743714	62.1017	203.205	39.254	26.8865	32.4097	29.9018
0.0493896	62.1017	203.205	39.5212	29.4165	33.6114	30.434
0.842493	62.1017	203.205	39.6994	31.5523	34.5313	30.937
1.6356	62.1017	203.205	39.8011	33.0446	35.2408	31.4107
2.4287	62.1017	203.205	39.8476	34.1708	35.7787	31.8648
3.2218	62.1017	203.205	39.8546	35.0269	36.2444	32.2946
4.01491	62.1017	203.205	39.8265	35.6768	36.6851	32.7218
4.80801	62.1017	203.205	39.7694	36.2127	37.0733	33.1012
5.60111	62.1017	203.205	39.7016	36.6686	37.4587	33.5074
6.39422	62.1017	203.205	39.5819	37.0821	37.8483	33.8754
7.18732	62.1017	203.205	39.3411	37.4642	38.2096	34.2223
7.98042	62.1017	203.205	38.8932	37.8688	38.5906	34.5446
8.77353	62.1017	203.205	38.1046	38.1936	39.0053	34.8462
9.56663	62.1017	203.205	36.8616	38.467	39.2545	35.1076
10.3597	62.1017	203.205	33.7368	38.71	39.4352	35.2989
11.1528	62.1017	203.205	24.4432	38.8144	39.4797	35.331
11.9459	62.1017	203.205	-38.7657	38.3306	39.4248	35.2048
12.739	62.1017	203.205	0	37.0208	39.2451	34.8613
13.5321	62.1017	203.205	0	35.2617	38.5608	34.443
14.3253	62.1017	203.205	0	33.4484	37.3021	33.7542
15.1184	62.1017	203.205	0	31.1366	35.15	32.453
15.9115	62.1017	203.205	0	25.9406	30.001	28.1569
16.7046	62.1017	203.205	0	0	0	0
17.4977	62.1017	203.205	0	0	0	0
-5.50031	67.2336	219.997	36.9647	0	0	0
-4.70721	67.2336	219.997	37.3531	0	0	25.2359
-3.9141	67.2336	219.997	37.7264	0	0	26.6038
-3.121	67.2336	219.997	38.0929	0	25.5752	27.67
-2.3279	67.2336	219.997	38.4726	0	28.4626	28.5091
-1.53479	67.2336	219.997	38.8623	0	30.7265	29.1918
-0.741689	67.2336	219.997	39.2038	26.8675	32.3888	29.7853
0.0514143	67.2336	219.997	39.466	29.3975	33.5912	30.3175
0.844518	67.2336	219.997	39.6392	31.5323	34.5118	30.8203
1.63762	67.2336	219.997	39.7372	33.0239	35.2216	31.2937
2.43072	67.2336	219.997	39.7815	34.1508	35.7596	31.7473
3.22383	67.2336	219.997	39.7872	35.0075	36.2253	32.1765
4.01693	67.2336	219.997	39.7582	35.6574	36.6661	32.6033
4.81003	67.2336	219.997	39.7017	36.1933	37.0543	32.9818
5.60314	67.2336	219.997	39.6323	36.6492	37.4395	33.3875
6.39624	67.2336	219.997	39.5081	37.0628	37.8291	33.7549
7.18935	67.2336	219.997	39.2588	37.4447	38.1903	34.101
7.98245	67.2336	219.997	38.793	37.8495	38.5712	34.4225
8.77555	67.2336	219.997	37.9612	38.1743	38.9847	34.7232
9.56866	67.2336	219.997	36.6728	38.4478	39.2323	34.9834
10.3618	67.2336	219.997	33.5486	38.6903	39.4117	35.1733
11.1549	67.2336	219.997	23.4009	38.7929	39.455	35.2043
11.948	67.2336	219.997	-45.1188	38.3088	39.3996	35.0783
12.7411	67.2336	219.997	0	36.9984	39.2191	34.7365
13.5342	67.2336	219.997	0	35.2393	38.5365	34.3197
14.3273	67.2336	219.997	0	33.426	37.2794	33.6315
15.1204	67.2336	219.997	0	31.1143	35.1275	32.3304
15.9135	67.2336	219.997	0	25.9183	29.9786	28.0343
16.7066	67.2336	219.997	0	0	0	0
17.4997	67.2336	219.997	0	0	0	0
-5.49829	72.7895	238.177	36.9202	0	0	0
-4.70519	72.7895	238.177	37.3079	0	0	25.1159
-3.91209	72.7895	238.177	37.6806	0	0	26.4846
-3.11898	72.7895	238.177	38.0471	0	25.557	27.5522
-2.32588	72.7895	238.177	38.4271	0	28.4441	28.392
-1.53278	72.7895	238.177	38.8153	0	30.7072	29.0749
-0.739674	72.7895	238.177	39.1532	26.8489	32.3682	29.6685
0.0534296	72.7895	238.177	39.4103	29.3787	33.5712	30.2007
0.846533	72.7895	238.177	39.5786	31.5126	34.4924	30.7034
1.63964	72.7895	238.177	39.6731	33.0033	35.2025	31.1764
2.43274	72.7895	238.177	39.7154	34.1311	35.7404	31.6295
3.22584	72.7895	238.177	39.72	34.9881	36.2062	32.0582
4.01895	72.7895	238.177	39.6905	35.6381	36.6471	32.4845
4.81205	72.7895	238.177	39.6349	36.174	37.0354	32.8622
5.60515	72.7895	238.177	39.5645	36.63	37.4204	33.2673
6.39826	72.7895	238.177	39.436	37.0436	37.8101	33.634
7.19136	72.7895	238.177	39.1789	37.4253	38.1711	33.9793
7.98446	72.7895	238.177	38.6965	37.8303	38.5519	34.3
8.77757	72.7895	238.177	37.8192	38.1551	38.9641	34.6
9.57067	72.7895	238.177	36.4708	38.4286	39.2102	34.8589
10.3638	72.7895	238.177	33.3473	38.6706	39.3883	35.0474
11.1569	72.7895	238.177	22.2744	38.7714	39.4304	35.0773
11.95	72.7895	238.177	-51.995	38.2871	39.3746	34.9516
12.7431	72.7895	238.177	0	36.9762	39.1932	34.6114
13.5362	72.7895	238.177	0	35.217	38.5123	34.1962
14.3293	72.7895	238.177	0	33.4037	37.2568	33.5086
15.1224	72.7895	238.177	0	31.0921	35.1051	32.2075
15.9155	72.7895	238.177	0	25.8963	29.9563	27.9116
16.7086	72.7895	238.177	0	0	0	0
17.5017	72.7895	238.177	0	0	0	0
-5.49629	78.8046	257.859	36.8752	0	0	0
-4.70319	78.8046	257.859	37.2623	0	0	24.9955
-3.91008	78.8046	257.859	37.6345	0	0	26.3652
-3.11698	78.8046	257.859	38.001	0	25.5387	27.434
-2.32387	78.8046	257.859	38.3813	0	28.4254	28.2745
-1.53077	78.8046	257.859	38.7679	0	30.6878	28.9576
-0.737668	78.8046	257.859	39.1021	26.8301	32.3474	29.5514
0.0554356	78.8046	257.859	39.3543	29.3599	33.5509	30.0835
0.848539	78.8046	257.859	39.5178	31.4928	34.4728	30.586
1.64164	78.8046	257.859	39.6089	32.9827	35.1831	31.0587
2.43475	78.8046	257.859	39.6493	34.1111	35.721	31.5114
3.22785	78.8046	257.859	39.653	34.9686	36.1868	31.9394
4.02095	78.8046	257.859	39.623	35.6185	36.6278	32.3654
4.81406	78.8046	257.859	39.5689	36.1544	37.0162	32.7421
5.60716	78.8046	257.859	39.4978	36.6104	37.401	33.1468
6.40026	78.8046	257.859	39.3655	37.024	37.7907	33.5128
7.19337	78.8046	257.859	39.1013	37.4056	38.1515	33.8574
7.98647	78.8046	257.859	38.6039	37.8107	38.5322	34.1773
8.77957	78.8046	257.859	37.6812	38.1356	38.9432	34.4763
9.57268	78.8046	257.859	36.2547	38.4091	39.1878	34.734
10.3658	78.8046	257.859	33.1315	38.6506	39.3646	34.9211
11.1589	78.8046	257.859	21.0566	38.7496	39.4056	34.95
11.952	78.8046	257.859	-59.4375	38.2652	39.3493	34.8245
12.7451	78.8046	257.859	0	36.9538	39.1672	34.4861
13.5382	78.8046	257.859	0	35.1945	38.4878	34.0724
14.3313	78.8046	257.859	0	33.3813	37.2339	33.3855
15.1244	78.8046	257.859	0	31.0697	35.0826	32.0845
15.9175	78.8046	257.859	0	25.874	29.9338	27.7885
16.7106	78.8046	257.859	0	0	0	0
17.5037	78.8046	257.859	0	0	0	0
-5.49429	85.3168	279.168	36.8297	0	0	0
-4.70119	85.3168	279.168	37.2162	0	0	24.8748
-3.90808	85.3168	279.168	37.588	0	0	26.2453
-3.11498	85.3168	279.168	37.9547	0	25.52	27.3153
-2.32188	85.3168	279.168	38.3354	0	28.4064	28.1565
-1.52877	85.3168	279.168	38.7202	0	30.6681	28.8399
-0.735671	85.3168	279.168	39.0506	26.8109	32.3263	29.4337
0.0574323	85.3168	279.168	39.2977	29.3406	33.5303	29.9658
0.850536	85.3168	279.168	39.4565	31.4726	34.4526	30.4682
1.64364	85.3168	279.168	39.5443	32.9616	35.1631	30.9406
2.43674	85.3168	279.168	39.583	34.0907	35.701	31.3928
3.22985	85.3168	279.168	39.5858	34.9484	36.1668	31.8203
4.02295	85.3168	279.168	39.5556	35.5984	36.6079	32.2458
4.81605	85.3168	279.168	39.5032	36.1343	36.9965	32.6217
5.60916	85.3168	279.168	39.4316	36.5903	37.381	33.0258
6.40226	85.3168	279.168	39.2958	37.0039	37.7707	33.3912
7.19536	85.3168	279.168	39.0255	37.3853	38.1314	33.7351
7.98847	85.3168	279.168	38.5151	37.7906	38.5119	34.0542
8.78157	85.3168	279.168	37.5497	38.1155	38.9217	34.3523
9.57467	85.3168	279.168	36.0237	38.3891	39.1649	34.6087
10.3678	85.3168	279.168	32.9	38.63	39.3404	34.7944
11.1609	85.3168	279.168	19.7402	38.7273	39.3802	34.8223
11.954	85.3168	279.168	-67.4931	38.2427	39.3236	34.697
12.7471	85.3168	279.168	0	36.9309	39.1406	34.3605
13.5402	85.3168	279.168	0	35.1715	38.463	33.9483
14.3333	85.3168	279.168	0	33.3583	37.2106	33.2622
15.1264	85.3168	279.168	0	31.0469	35.0596	31.9612
15.9195	85.3168	279.168	0	25.8512	29.9108	27.6652
16.7126	85.3168	279.168	0	0	0	0
17.5057	85.3168	279.168	0	0	0	0
-5.4923	92.3671	302.237	36.7836	0	0	0
-4.6992	92.3671	302.237	37.1696	0	0	24.7538
-3.9061	92.3671	302.237	37.541	0	0	26.1251
-3.11299	92.3671	302.237	37.9081	0	25.5007	27.1962
-2.31989	92.3671	302.237	38.2893	0	28.3868	28.038
-1.52679	92.3671	302.237	38.672	0	30.6477	28.7216
-0.733684	92.3671	302.237	38.9985	26.7912	32.3046	29.3155
0.0594199	92.3671	302.237	39.2406	29.3208	33.509	29.8477
0.852523	92.3671	302.237	39.3948	31.4518	34.4317	30.35
1.64563	92.3671	302.237	39.4794	32.9399	35.1424	30.8221
2.43873	92.3671	302.237	39.5164	34.0696	35.6803	31.2738
3.23183	92.3671	302.237	39.5183	34.9276	36.146	31.7007
4.02494	92.3671	302.237	39.4879	35.5775	36.5872	32.1258
4.81804	92.3671	302.237	39.4373	36.1133	36.9759	32.5008
5.61114	92.3671	302.237	39.3656	36.5693	37.3602	32.9045
6.40425	92.3671	302.237	39.2266	36.983	37.75	33.2692
7.19735	92.3671	302.237	38.9508	37.3643	38.1106	33.6124
7.99045	92.3671	302.237	38.4295	37.7697	38.4908	33.9307
8.78356	92.3671	302.237	37.4266	38.0946	38.8994	34.2279
9.57666	92.3671	302.237	35.7773	38.3682	39.1412	34.483
10.3698	92.3671	302.237	32.6514	38.6086	39.3154	34.6672
11.1629	92.3671	302.237	18.3168	38.7042	39.3542	34.6942
11.956	92.3671	302.237	-76.2125	38.2195	39.2972	34.5692
12.7491	92.3671	302.237	0	36.9073	39.1134	34.2345
13.5422	92.3671	302.237	0	35.1478	38.4374	33.824
14.3353	92.3671	302.237	0	33.3347	37.1866	33.1386
15.1284	92.3671	302.237	0	31.0233	35.0359	31.8377
15.9215	92.3671	302.237	0	25.8277	29.8871	27.5414
16.7146	92.3671	302.237	0	0	0	0
17.5077	92.3671	302.237	0	0	0	0
-5.49033	100	327.213	0	0	0	0
-4.69722	100	327.213	0	0	0	0
-3.90412	100	327.213	0	0	0	0
-3.11102	100	327.213	0	0	0	0
-2.31791	100	327.213	0	0	0	0
-1.52481	100	327.213	0	0	0	0
-0.731705	100	327.213	0	0	0	0
0.0613985	100	327.213	0	0	0	0
0.854502	100	327.213	0	0	0	0
1.64761	100	327.213	0	0	0	0
2.44071	100	327.213	0	0	0	0
3.23381	100	327.213	0	0	0	0
4.02692	100	327.213	0	0	0	0
4.82002	100	327.213	0	0	0	0
5.61312	100	327.213	0	0	0	0
6.40623	100	327.213	0	0	0	0
7.19933	100	327.213	0	0	0	0
7.99243	100	327.213	0	0	0	0
8.78554	100	327.213	0	0	0	0
9.57864	100	327.213	0	0	0	0
10.3717	100	327.213	0	0	0	0
11.1648	100	327.213	0	0	0	0
11.958	100	327.213	0	0	0	0
12.7511	100	327.213	0	0	0	0
13.5442	100	327.213	0	0	0	0
14.3373	100	327.213	0	0	0	0
15.1304	100	327.213	0	0	0	0
15.9235	100	327.213	0	0	0	0
16.7166	100	327.213	0	0	0	0
17.5097	100	327.213	0	0	0	0
