log(E / eV)	log(z / pc)	t / yr	 logQ
6	1.69897	0	48.7326
6.10101	1.69897	0	48.9812
6.20202	1.69897	0	49.1363
6.30303	1.69897	0	49.2173
6.40404	1.69897	0	49.2395
6.50505	1.69897	0	49.2153
6.60606	1.69897	0	49.1541
6.70707	1.69897	0	49.0637
6.80808	1.69897	0	48.9501
6.90909	1.69897	0	48.8182
7.0101	1.69897	0	48.6717
7.11111	1.69897	0	48.5137
7.21212	1.69897	0	48.3466
7.31313	1.69897	0	48.1722
7.41414	1.69897	0	47.9921
7.51515	1.69897	0	47.8075
7.61616	1.69897	0	47.6192
7.71717	1.69897	0	47.4281
7.81818	1.69897	0	47.2347
7.91919	1.69897	0	47.0396
8.0202	1.69897	0	46.843
8.12121	1.69897	0	46.6452
8.22222	1.69897	0	46.4466
8.32323	1.69897	0	46.2473
8.42424	1.69897	0	46.0474
8.52525	1.69897	0	45.8471
8.62626	1.69897	0	45.6464
8.72727	1.69897	0	45.4455
8.82828	1.69897	0	45.2443
8.92929	1.69897	0	45.043
9.0303	1.69897	0	44.8415
9.13131	1.69897	0	44.6399
9.23232	1.69897	0	44.4382
9.33333	1.69897	0	44.2364
9.43434	1.69897	0	44.0346
9.53535	1.69897	0	43.8328
9.63636	1.69897	0	43.6309
9.73737	1.69897	0	43.4289
9.83838	1.69897	0	43.227
9.93939	1.69897	0	43.0251
10.0404	1.69897	0	42.8231
10.1414	1.69897	0	42.6211
10.2424	1.69897	0	42.4191
10.3434	1.69897	0	42.2171
10.4444	1.69897	0	42.0151
10.5455	1.69897	0	41.8131
10.6465	1.69897	0	41.6111
10.7475	1.69897	0	41.4091
10.8485	1.69897	0	41.2071
10.9495	1.69897	0	41.005
11.0505	1.69897	0	40.803
11.1515	1.69897	0	40.601
11.2525	1.69897	0	40.399
11.3535	1.69897	0	40.1969
11.4545	1.69897	0	39.9949
11.5556	1.69897	0	39.7929
11.6566	1.69897	0	39.5908
11.7576	1.69897	0	39.3887
11.8586	1.69897	0	39.1867
11.9596	1.69897	0	38.9846
12.0606	1.69897	0	38.7825
12.1616	1.69897	0	38.5803
12.2626	1.69897	0	38.3782
12.3636	1.69897	0	38.176
12.4646	1.69897	0	37.9738
12.5657	1.69897	0	37.7715
12.6667	1.69897	0	37.5691
12.7677	1.69897	0	37.3667
12.8687	1.69897	0	37.1641
12.9697	1.69897	0	36.9614
13.0707	1.69897	0	36.7585
13.1717	1.69897	0	36.5554
13.2727	1.69897	0	36.352
13.3737	1.69897	0	36.1483
13.4747	1.69897	0	35.944
13.5758	1.69897	0	35.7393
13.6768	1.69897	0	35.5338
13.7778	1.69897	0	35.3273
13.8788	1.69897	0	35.1198
13.9798	1.69897	0	34.9107
14.0808	1.69897	0	34.6999
14.1818	1.69897	0	34.4867
14.2828	1.69897	0	34.2706
14.3838	1.69897	0	34.0508
14.4848	1.69897	0	33.8264
14.5859	1.69897	0	33.5961
14.6869	1.69897	0	33.3584
14.7879	1.69897	0	33.1113
14.8889	1.69897	0	32.8525
14.9899	1.69897	0	32.5787
15.0909	1.69897	0	32.2862
15.1919	1.69897	0	31.97
15.2929	1.69897	0	31.6239
15.3939	1.69897	0	31.2401
15.4949	1.69897	0	30.8087
15.596	1.69897	0	30.3172
15.697	1.69897	0	29.7498
15.798	1.69897	0	29.0869
15.899	1.69897	0	28.3032
16	1.69897	0	27.3672
6	1.70511	0.582132	48.1222
6.10101	1.70511	0.582132	48.3707
6.20202	1.70511	0.582132	48.5258
6.30303	1.70511	0.582132	48.6068
6.40404	1.70511	0.582132	48.6291
6.50505	1.70511	0.582132	48.6048
6.60606	1.70511	0.582132	48.5436
6.70707	1.70511	0.582132	48.4532
6.80808	1.70511	0.582132	48.3397
6.90909	1.70511	0.582132	48.2077
7.0101	1.70511	0.582132	48.0613
7.11111	1.70511	0.582132	47.9033
7.21212	1.70511	0.582132	47.7361
7.31313	1.70511	0.582132	47.5618
7.41414	1.70511	0.582132	47.3817
7.51515	1.70511	0.582132	47.197
7.61616	1.70511	0.582132	47.0087
7.71717	1.70511	0.582132	46.8176
7.81818	1.70511	0.582132	46.6243
7.91919	1.70511	0.582132	46.4291
8.0202	1.70511	0.582132	46.2325
8.12121	1.70511	0.582132	46.0348
8.22222	1.70511	0.582132	45.8362
8.32323	1.70511	0.582132	45.6368
8.42424	1.70511	0.582132	45.437
8.52525	1.70511	0.582132	45.2366
8.62626	1.70511	0.582132	45.036
8.72727	1.70511	0.582132	44.835
8.82828	1.70511	0.582132	44.6338
8.92929	1.70511	0.582132	44.4325
9.0303	1.70511	0.582132	44.231
9.13131	1.70511	0.582132	44.0294
9.23232	1.70511	0.582132	43.8277
9.33333	1.70511	0.582132	43.6259
9.43434	1.70511	0.582132	43.4241
9.53535	1.70511	0.582132	43.2223
9.63636	1.70511	0.582132	43.0204
9.73737	1.70511	0.582132	42.8185
9.83838	1.70511	0.582132	42.6165
9.93939	1.70511	0.582132	42.4146
10.0404	1.70511	0.582132	42.2126
10.1414	1.70511	0.582132	42.0106
10.2424	1.70511	0.582132	41.8086
10.3434	1.70511	0.582132	41.6066
10.4444	1.70511	0.582132	41.4046
10.5455	1.70511	0.582132	41.2026
10.6465	1.70511	0.582132	41.0006
10.7475	1.70511	0.582132	40.7986
10.8485	1.70511	0.582132	40.5966
10.9495	1.70511	0.582132	40.3946
11.0505	1.70511	0.582132	40.1926
11.1515	1.70511	0.582132	39.9905
11.2525	1.70511	0.582132	39.7885
11.3535	1.70511	0.582132	39.5865
11.4545	1.70511	0.582132	39.3844
11.5556	1.70511	0.582132	39.1824
11.6566	1.70511	0.582132	38.9803
11.7576	1.70511	0.582132	38.7783
11.8586	1.70511	0.582132	38.5762
11.9596	1.70511	0.582132	38.3741
12.0606	1.70511	0.582132	38.172
12.1616	1.70511	0.582132	37.9699
12.2626	1.70511	0.582132	37.7677
12.3636	1.70511	0.582132	37.5655
12.4646	1.70511	0.582132	37.3633
12.5657	1.70511	0.582132	37.161
12.6667	1.70511	0.582132	36.9586
12.7677	1.70511	0.582132	36.7562
12.8687	1.70511	0.582132	36.5536
12.9697	1.70511	0.582132	36.3509
13.0707	1.70511	0.582132	36.148
13.1717	1.70511	0.582132	35.9449
13.2727	1.70511	0.582132	35.7415
13.3737	1.70511	0.582132	35.5378
13.4747	1.70511	0.582132	35.3336
13.5758	1.70511	0.582132	35.1288
13.6768	1.70511	0.582132	34.9233
13.7778	1.70511	0.582132	34.7169
13.8788	1.70511	0.582132	34.5093
13.9798	1.70511	0.582132	34.3003
14.0808	1.70511	0.582132	34.0894
14.1818	1.70511	0.582132	33.8762
14.2828	1.70511	0.582132	33.6601
14.3838	1.70511	0.582132	33.4403
14.4848	1.70511	0.582132	33.2159
14.5859	1.70511	0.582132	32.9856
14.6869	1.70511	0.582132	32.7479
14.7879	1.70511	0.582132	32.5008
14.8889	1.70511	0.582132	32.242
14.9899	1.70511	0.582132	31.9683
15.0909	1.70511	0.582132	31.6758
15.1919	1.70511	0.582132	31.3596
15.2929	1.70511	0.582132	31.0135
15.3939	1.70511	0.582132	30.6296
15.4949	1.70511	0.582132	30.1982
15.596	1.70511	0.582132	29.7067
15.697	1.70511	0.582132	29.1394
15.798	1.70511	0.582132	28.4764
15.899	1.70511	0.582132	27.6927
16	1.70511	0.582132	26.7567
6	1.71126	0.930549	48.0238
6.10101	1.71126	0.930549	48.2724
6.20202	1.71126	0.930549	48.4274
6.30303	1.71126	0.930549	48.5084
6.40404	1.71126	0.930549	48.5307
6.50505	1.71126	0.930549	48.5064
6.60606	1.71126	0.930549	48.4452
6.70707	1.71126	0.930549	48.3548
6.80808	1.71126	0.930549	48.2413
6.90909	1.71126	0.930549	48.1093
7.0101	1.71126	0.930549	47.9629
7.11111	1.71126	0.930549	47.8049
7.21212	1.71126	0.930549	47.6378
7.31313	1.71126	0.930549	47.4634
7.41414	1.71126	0.930549	47.2833
7.51515	1.71126	0.930549	47.0986
7.61616	1.71126	0.930549	46.9104
7.71717	1.71126	0.930549	46.7192
7.81818	1.71126	0.930549	46.5259
7.91919	1.71126	0.930549	46.3307
8.0202	1.71126	0.930549	46.1341
8.12121	1.71126	0.930549	45.9364
8.22222	1.71126	0.930549	45.7378
8.32323	1.71126	0.930549	45.5385
8.42424	1.71126	0.930549	45.3386
8.52525	1.71126	0.930549	45.1382
8.62626	1.71126	0.930549	44.9376
8.72727	1.71126	0.930549	44.7366
8.82828	1.71126	0.930549	44.5354
8.92929	1.71126	0.930549	44.3341
9.0303	1.71126	0.930549	44.1326
9.13131	1.71126	0.930549	43.931
9.23232	1.71126	0.930549	43.7293
9.33333	1.71126	0.930549	43.5276
9.43434	1.71126	0.930549	43.3257
9.53535	1.71126	0.930549	43.1239
9.63636	1.71126	0.930549	42.922
9.73737	1.71126	0.930549	42.7201
9.83838	1.71126	0.930549	42.5181
9.93939	1.71126	0.930549	42.3162
10.0404	1.71126	0.930549	42.1142
10.1414	1.71126	0.930549	41.9122
10.2424	1.71126	0.930549	41.7103
10.3434	1.71126	0.930549	41.5083
10.4444	1.71126	0.930549	41.3063
10.5455	1.71126	0.930549	41.1042
10.6465	1.71126	0.930549	40.9022
10.7475	1.71126	0.930549	40.7002
10.8485	1.71126	0.930549	40.4982
10.9495	1.71126	0.930549	40.2962
11.0505	1.71126	0.930549	40.0942
11.1515	1.71126	0.930549	39.8921
11.2525	1.71126	0.930549	39.6901
11.3535	1.71126	0.930549	39.4881
11.4545	1.71126	0.930549	39.286
11.5556	1.71126	0.930549	39.084
11.6566	1.71126	0.930549	38.8819
11.7576	1.71126	0.930549	38.6799
11.8586	1.71126	0.930549	38.4778
11.9596	1.71126	0.930549	38.2757
12.0606	1.71126	0.930549	38.0736
12.1616	1.71126	0.930549	37.8715
12.2626	1.71126	0.930549	37.6693
12.3636	1.71126	0.930549	37.4671
12.4646	1.71126	0.930549	37.2649
12.5657	1.71126	0.930549	37.0626
12.6667	1.71126	0.930549	36.8603
12.7677	1.71126	0.930549	36.6578
12.8687	1.71126	0.930549	36.4552
12.9697	1.71126	0.930549	36.2525
13.0707	1.71126	0.930549	36.0497
13.1717	1.71126	0.930549	35.8465
13.2727	1.71126	0.930549	35.6432
13.3737	1.71126	0.930549	35.4394
13.4747	1.71126	0.930549	35.2352
13.5758	1.71126	0.930549	35.0304
13.6768	1.71126	0.930549	34.8249
13.7778	1.71126	0.930549	34.6185
13.8788	1.71126	0.930549	34.4109
13.9798	1.71126	0.930549	34.2019
14.0808	1.71126	0.930549	33.991
14.1818	1.71126	0.930549	33.7778
14.2828	1.71126	0.930549	33.5617
14.3838	1.71126	0.930549	33.342
14.4848	1.71126	0.930549	33.1175
14.5859	1.71126	0.930549	32.8872
14.6869	1.71126	0.930549	32.6495
14.7879	1.71126	0.930549	32.4025
14.8889	1.71126	0.930549	32.1436
14.9899	1.71126	0.930549	31.8699
15.0909	1.71126	0.930549	31.5774
15.1919	1.71126	0.930549	31.2612
15.2929	1.71126	0.930549	30.9151
15.3939	1.71126	0.930549	30.5312
15.4949	1.71126	0.930549	30.0998
15.596	1.71126	0.930549	29.6083
15.697	1.71126	0.930549	29.041
15.798	1.71126	0.930549	28.378
15.899	1.71126	0.930549	27.5943
16	1.71126	0.930549	26.6583
6	1.7174	1.20324	47.9629
6.10101	1.7174	1.20324	48.2115
6.20202	1.7174	1.20324	48.3666
6.30303	1.7174	1.20324	48.4476
6.40404	1.7174	1.20324	48.4698
6.50505	1.7174	1.20324	48.4455
6.60606	1.7174	1.20324	48.3844
6.70707	1.7174	1.20324	48.294
6.80808	1.7174	1.20324	48.1804
6.90909	1.7174	1.20324	48.0485
7.0101	1.7174	1.20324	47.902
7.11111	1.7174	1.20324	47.744
7.21212	1.7174	1.20324	47.5769
7.31313	1.7174	1.20324	47.4025
7.41414	1.7174	1.20324	47.2224
7.51515	1.7174	1.20324	47.0378
7.61616	1.7174	1.20324	46.8495
7.71717	1.7174	1.20324	46.6584
7.81818	1.7174	1.20324	46.465
7.91919	1.7174	1.20324	46.2698
8.0202	1.7174	1.20324	46.0732
8.12121	1.7174	1.20324	45.8755
8.22222	1.7174	1.20324	45.6769
8.32323	1.7174	1.20324	45.4776
8.42424	1.7174	1.20324	45.2777
8.52525	1.7174	1.20324	45.0774
8.62626	1.7174	1.20324	44.8767
8.72727	1.7174	1.20324	44.6758
8.82828	1.7174	1.20324	44.4746
8.92929	1.7174	1.20324	44.2732
9.0303	1.7174	1.20324	44.0717
9.13131	1.7174	1.20324	43.8701
9.23232	1.7174	1.20324	43.6684
9.33333	1.7174	1.20324	43.4667
9.43434	1.7174	1.20324	43.2649
9.53535	1.7174	1.20324	43.063
9.63636	1.7174	1.20324	42.8611
9.73737	1.7174	1.20324	42.6592
9.83838	1.7174	1.20324	42.4573
9.93939	1.7174	1.20324	42.2553
10.0404	1.7174	1.20324	42.0534
10.1414	1.7174	1.20324	41.8514
10.2424	1.7174	1.20324	41.6494
10.3434	1.7174	1.20324	41.4474
10.4444	1.7174	1.20324	41.2454
10.5455	1.7174	1.20324	41.0434
10.6465	1.7174	1.20324	40.8414
10.7475	1.7174	1.20324	40.6394
10.8485	1.7174	1.20324	40.4373
10.9495	1.7174	1.20324	40.2353
11.0505	1.7174	1.20324	40.0333
11.1515	1.7174	1.20324	39.8313
11.2525	1.7174	1.20324	39.6292
11.3535	1.7174	1.20324	39.4272
11.4545	1.7174	1.20324	39.2252
11.5556	1.7174	1.20324	39.0231
11.6566	1.7174	1.20324	38.8211
11.7576	1.7174	1.20324	38.619
11.8586	1.7174	1.20324	38.4169
11.9596	1.7174	1.20324	38.2149
12.0606	1.7174	1.20324	38.0127
12.1616	1.7174	1.20324	37.8106
12.2626	1.7174	1.20324	37.6085
12.3636	1.7174	1.20324	37.4063
12.4646	1.7174	1.20324	37.204
12.5657	1.7174	1.20324	37.0018
12.6667	1.7174	1.20324	36.7994
12.7677	1.7174	1.20324	36.5969
12.8687	1.7174	1.20324	36.3944
12.9697	1.7174	1.20324	36.1917
13.0707	1.7174	1.20324	35.9888
13.1717	1.7174	1.20324	35.7857
13.2727	1.7174	1.20324	35.5823
13.3737	1.7174	1.20324	35.3785
13.4747	1.7174	1.20324	35.1743
13.5758	1.7174	1.20324	34.9695
13.6768	1.7174	1.20324	34.764
13.7778	1.7174	1.20324	34.5576
13.8788	1.7174	1.20324	34.35
13.9798	1.7174	1.20324	34.141
14.0808	1.7174	1.20324	33.9301
14.1818	1.7174	1.20324	33.717
14.2828	1.7174	1.20324	33.5009
14.3838	1.7174	1.20324	33.2811
14.4848	1.7174	1.20324	33.0567
14.5859	1.7174	1.20324	32.8264
14.6869	1.7174	1.20324	32.5886
14.7879	1.7174	1.20324	32.3416
14.8889	1.7174	1.20324	32.0827
14.9899	1.7174	1.20324	31.809
15.0909	1.7174	1.20324	31.5165
15.1919	1.7174	1.20324	31.2003
15.2929	1.7174	1.20324	30.8542
15.3939	1.7174	1.20324	30.4704
15.4949	1.7174	1.20324	30.0389
15.596	1.7174	1.20324	29.5474
15.697	1.7174	1.20324	28.9801
15.798	1.7174	1.20324	28.3171
15.899	1.7174	1.20324	27.5335
16	1.7174	1.20324	26.5975
6	1.72354	1.42475	47.9119
6.10101	1.72354	1.42475	48.1605
6.20202	1.72354	1.42475	48.3156
6.30303	1.72354	1.42475	48.3965
6.40404	1.72354	1.42475	48.4188
6.50505	1.72354	1.42475	48.3945
6.60606	1.72354	1.42475	48.3333
6.70707	1.72354	1.42475	48.2429
6.80808	1.72354	1.42475	48.1294
6.90909	1.72354	1.42475	47.9975
7.0101	1.72354	1.42475	47.851
7.11111	1.72354	1.42475	47.693
7.21212	1.72354	1.42475	47.5259
7.31313	1.72354	1.42475	47.3515
7.41414	1.72354	1.42475	47.1714
7.51515	1.72354	1.42475	46.9867
7.61616	1.72354	1.42475	46.7985
7.71717	1.72354	1.42475	46.6074
7.81818	1.72354	1.42475	46.414
7.91919	1.72354	1.42475	46.2188
8.0202	1.72354	1.42475	46.0222
8.12121	1.72354	1.42475	45.8245
8.22222	1.72354	1.42475	45.6259
8.32323	1.72354	1.42475	45.4266
8.42424	1.72354	1.42475	45.2267
8.52525	1.72354	1.42475	45.0264
8.62626	1.72354	1.42475	44.8257
8.72727	1.72354	1.42475	44.6247
8.82828	1.72354	1.42475	44.4236
8.92929	1.72354	1.42475	44.2222
9.0303	1.72354	1.42475	44.0207
9.13131	1.72354	1.42475	43.8191
9.23232	1.72354	1.42475	43.6174
9.33333	1.72354	1.42475	43.4157
9.43434	1.72354	1.42475	43.2139
9.53535	1.72354	1.42475	43.012
9.63636	1.72354	1.42475	42.8101
9.73737	1.72354	1.42475	42.6082
9.83838	1.72354	1.42475	42.4063
9.93939	1.72354	1.42475	42.2043
10.0404	1.72354	1.42475	42.0023
10.1414	1.72354	1.42475	41.8004
10.2424	1.72354	1.42475	41.5984
10.3434	1.72354	1.42475	41.3964
10.4444	1.72354	1.42475	41.1944
10.5455	1.72354	1.42475	40.9924
10.6465	1.72354	1.42475	40.7904
10.7475	1.72354	1.42475	40.5883
10.8485	1.72354	1.42475	40.3863
10.9495	1.72354	1.42475	40.1843
11.0505	1.72354	1.42475	39.9823
11.1515	1.72354	1.42475	39.7803
11.2525	1.72354	1.42475	39.5782
11.3535	1.72354	1.42475	39.3762
11.4545	1.72354	1.42475	39.1742
11.5556	1.72354	1.42475	38.9721
11.6566	1.72354	1.42475	38.7701
11.7576	1.72354	1.42475	38.568
11.8586	1.72354	1.42475	38.3659
11.9596	1.72354	1.42475	38.1638
12.0606	1.72354	1.42475	37.9617
12.1616	1.72354	1.42475	37.7596
12.2626	1.72354	1.42475	37.5574
12.3636	1.72354	1.42475	37.3553
12.4646	1.72354	1.42475	37.153
12.5657	1.72354	1.42475	36.9507
12.6667	1.72354	1.42475	36.7484
12.7677	1.72354	1.42475	36.5459
12.8687	1.72354	1.42475	36.3434
12.9697	1.72354	1.42475	36.1407
13.0707	1.72354	1.42475	35.9378
13.1717	1.72354	1.42475	35.7347
13.2727	1.72354	1.42475	35.5313
13.3737	1.72354	1.42475	35.3275
13.4747	1.72354	1.42475	35.1233
13.5758	1.72354	1.42475	34.9185
13.6768	1.72354	1.42475	34.713
13.7778	1.72354	1.42475	34.5066
13.8788	1.72354	1.42475	34.299
13.9798	1.72354	1.42475	34.09
14.0808	1.72354	1.42475	33.8791
14.1818	1.72354	1.42475	33.666
14.2828	1.72354	1.42475	33.4499
14.3838	1.72354	1.42475	33.2301
14.4848	1.72354	1.42475	33.0056
14.5859	1.72354	1.42475	32.7753
14.6869	1.72354	1.42475	32.5376
14.7879	1.72354	1.42475	32.2906
14.8889	1.72354	1.42475	32.0317
14.9899	1.72354	1.42475	31.758
15.0909	1.72354	1.42475	31.4655
15.1919	1.72354	1.42475	31.1493
15.2929	1.72354	1.42475	30.8032
15.3939	1.72354	1.42475	30.4194
15.4949	1.72354	1.42475	29.9879
15.596	1.72354	1.42475	29.4964
15.697	1.72354	1.42475	28.9291
15.798	1.72354	1.42475	28.2661
15.899	1.72354	1.42475	27.4824
16	1.72354	1.42475	26.5465
6	1.72969	1.62044	47.8718
6.10101	1.72969	1.62044	48.1204
6.20202	1.72969	1.62044	48.2755
6.30303	1.72969	1.62044	48.3565
6.40404	1.72969	1.62044	48.3788
6.50505	1.72969	1.62044	48.3545
6.60606	1.72969	1.62044	48.2933
6.70707	1.72969	1.62044	48.2029
6.80808	1.72969	1.62044	48.0893
6.90909	1.72969	1.62044	47.9574
7.0101	1.72969	1.62044	47.811
7.11111	1.72969	1.62044	47.653
7.21212	1.72969	1.62044	47.4858
7.31313	1.72969	1.62044	47.3115
7.41414	1.72969	1.62044	47.1314
7.51515	1.72969	1.62044	46.9467
7.61616	1.72969	1.62044	46.7584
7.71717	1.72969	1.62044	46.5673
7.81818	1.72969	1.62044	46.3739
7.91919	1.72969	1.62044	46.1788
8.0202	1.72969	1.62044	45.9822
8.12121	1.72969	1.62044	45.7845
8.22222	1.72969	1.62044	45.5859
8.32323	1.72969	1.62044	45.3865
8.42424	1.72969	1.62044	45.1867
8.52525	1.72969	1.62044	44.9863
8.62626	1.72969	1.62044	44.7857
8.72727	1.72969	1.62044	44.5847
8.82828	1.72969	1.62044	44.3835
8.92929	1.72969	1.62044	44.1822
9.0303	1.72969	1.62044	43.9807
9.13131	1.72969	1.62044	43.7791
9.23232	1.72969	1.62044	43.5774
9.33333	1.72969	1.62044	43.3756
9.43434	1.72969	1.62044	43.1738
9.53535	1.72969	1.62044	42.972
9.63636	1.72969	1.62044	42.7701
9.73737	1.72969	1.62044	42.5682
9.83838	1.72969	1.62044	42.3662
9.93939	1.72969	1.62044	42.1643
10.0404	1.72969	1.62044	41.9623
10.1414	1.72969	1.62044	41.7603
10.2424	1.72969	1.62044	41.5583
10.3434	1.72969	1.62044	41.3563
10.4444	1.72969	1.62044	41.1543
10.5455	1.72969	1.62044	40.9523
10.6465	1.72969	1.62044	40.7503
10.7475	1.72969	1.62044	40.5483
10.8485	1.72969	1.62044	40.3463
10.9495	1.72969	1.62044	40.1443
11.0505	1.72969	1.62044	39.9422
11.1515	1.72969	1.62044	39.7402
11.2525	1.72969	1.62044	39.5382
11.3535	1.72969	1.62044	39.3362
11.4545	1.72969	1.62044	39.1341
11.5556	1.72969	1.62044	38.9321
11.6566	1.72969	1.62044	38.73
11.7576	1.72969	1.62044	38.528
11.8586	1.72969	1.62044	38.3259
11.9596	1.72969	1.62044	38.1238
12.0606	1.72969	1.62044	37.9217
12.1616	1.72969	1.62044	37.7196
12.2626	1.72969	1.62044	37.5174
12.3636	1.72969	1.62044	37.3152
12.4646	1.72969	1.62044	37.113
12.5657	1.72969	1.62044	36.9107
12.6667	1.72969	1.62044	36.7083
12.7677	1.72969	1.62044	36.5059
12.8687	1.72969	1.62044	36.3033
12.9697	1.72969	1.62044	36.1006
13.0707	1.72969	1.62044	35.8977
13.1717	1.72969	1.62044	35.6946
13.2727	1.72969	1.62044	35.4912
13.3737	1.72969	1.62044	35.2875
13.4747	1.72969	1.62044	35.0833
13.5758	1.72969	1.62044	34.8785
13.6768	1.72969	1.62044	34.673
13.7778	1.72969	1.62044	34.4666
13.8788	1.72969	1.62044	34.259
13.9798	1.72969	1.62044	34.05
14.0808	1.72969	1.62044	33.8391
14.1818	1.72969	1.62044	33.6259
14.2828	1.72969	1.62044	33.4098
14.3838	1.72969	1.62044	33.19
14.4848	1.72969	1.62044	32.9656
14.5859	1.72969	1.62044	32.7353
14.6869	1.72969	1.62044	32.4976
14.7879	1.72969	1.62044	32.2505
14.8889	1.72969	1.62044	31.9917
14.9899	1.72969	1.62044	31.718
15.0909	1.72969	1.62044	31.4255
15.1919	1.72969	1.62044	31.1092
15.2929	1.72969	1.62044	30.7631
15.3939	1.72969	1.62044	30.3793
15.4949	1.72969	1.62044	29.9479
15.596	1.72969	1.62044	29.4564
15.697	1.72969	1.62044	28.8891
15.798	1.72969	1.62044	28.2261
15.899	1.72969	1.62044	27.4424
16	1.72969	1.62044	26.5064
6	1.73583	1.78829	47.8329
6.10101	1.73583	1.78829	48.0815
6.20202	1.73583	1.78829	48.2366
6.30303	1.73583	1.78829	48.3176
6.40404	1.73583	1.78829	48.3399
6.50505	1.73583	1.78829	48.3156
6.60606	1.73583	1.78829	48.2544
6.70707	1.73583	1.78829	48.164
6.80808	1.73583	1.78829	48.0504
6.90909	1.73583	1.78829	47.9185
7.0101	1.73583	1.78829	47.7721
7.11111	1.73583	1.78829	47.6141
7.21212	1.73583	1.78829	47.4469
7.31313	1.73583	1.78829	47.2726
7.41414	1.73583	1.78829	47.0924
7.51515	1.73583	1.78829	46.9078
7.61616	1.73583	1.78829	46.7195
7.71717	1.73583	1.78829	46.5284
7.81818	1.73583	1.78829	46.335
7.91919	1.73583	1.78829	46.1399
8.0202	1.73583	1.78829	45.9433
8.12121	1.73583	1.78829	45.7456
8.22222	1.73583	1.78829	45.5469
8.32323	1.73583	1.78829	45.3476
8.42424	1.73583	1.78829	45.1477
8.52525	1.73583	1.78829	44.9474
8.62626	1.73583	1.78829	44.7467
8.72727	1.73583	1.78829	44.5458
8.82828	1.73583	1.78829	44.3446
8.92929	1.73583	1.78829	44.1433
9.0303	1.73583	1.78829	43.9418
9.13131	1.73583	1.78829	43.7402
9.23232	1.73583	1.78829	43.5385
9.33333	1.73583	1.78829	43.3367
9.43434	1.73583	1.78829	43.1349
9.53535	1.73583	1.78829	42.9331
9.63636	1.73583	1.78829	42.7312
9.73737	1.73583	1.78829	42.5293
9.83838	1.73583	1.78829	42.3273
9.93939	1.73583	1.78829	42.1254
10.0404	1.73583	1.78829	41.9234
10.1414	1.73583	1.78829	41.7214
10.2424	1.73583	1.78829	41.5194
10.3434	1.73583	1.78829	41.3174
10.4444	1.73583	1.78829	41.1154
10.5455	1.73583	1.78829	40.9134
10.6465	1.73583	1.78829	40.7114
10.7475	1.73583	1.78829	40.5094
10.8485	1.73583	1.78829	40.3074
10.9495	1.73583	1.78829	40.1054
11.0505	1.73583	1.78829	39.9033
11.1515	1.73583	1.78829	39.7013
11.2525	1.73583	1.78829	39.4993
11.3535	1.73583	1.78829	39.2972
11.4545	1.73583	1.78829	39.0952
11.5556	1.73583	1.78829	38.8932
11.6566	1.73583	1.78829	38.6911
11.7576	1.73583	1.78829	38.4891
11.8586	1.73583	1.78829	38.287
11.9596	1.73583	1.78829	38.0849
12.0606	1.73583	1.78829	37.8828
12.1616	1.73583	1.78829	37.6807
12.2626	1.73583	1.78829	37.4785
12.3636	1.73583	1.78829	37.2763
12.4646	1.73583	1.78829	37.0741
12.5657	1.73583	1.78829	36.8718
12.6667	1.73583	1.78829	36.6694
12.7677	1.73583	1.78829	36.467
12.8687	1.73583	1.78829	36.2644
12.9697	1.73583	1.78829	36.0617
13.0707	1.73583	1.78829	35.8588
13.1717	1.73583	1.78829	35.6557
13.2727	1.73583	1.78829	35.4523
13.3737	1.73583	1.78829	35.2486
13.4747	1.73583	1.78829	35.0444
13.5758	1.73583	1.78829	34.8396
13.6768	1.73583	1.78829	34.6341
13.7778	1.73583	1.78829	34.4276
13.8788	1.73583	1.78829	34.2201
13.9798	1.73583	1.78829	34.0111
14.0808	1.73583	1.78829	33.8002
14.1818	1.73583	1.78829	33.587
14.2828	1.73583	1.78829	33.3709
14.3838	1.73583	1.78829	33.1511
14.4848	1.73583	1.78829	32.9267
14.5859	1.73583	1.78829	32.6964
14.6869	1.73583	1.78829	32.4587
14.7879	1.73583	1.78829	32.2116
14.8889	1.73583	1.78829	31.9528
14.9899	1.73583	1.78829	31.6791
15.0909	1.73583	1.78829	31.3865
15.1919	1.73583	1.78829	31.0703
15.2929	1.73583	1.78829	30.7242
15.3939	1.73583	1.78829	30.3404
15.4949	1.73583	1.78829	29.909
15.596	1.73583	1.78829	29.4175
15.697	1.73583	1.78829	28.8501
15.798	1.73583	1.78829	28.1872
15.899	1.73583	1.78829	27.4035
16	1.73583	1.78829	26.4675
6	1.74197	1.93669	47.7959
6.10101	1.74197	1.93669	48.0445
6.20202	1.74197	1.93669	48.1996
6.30303	1.74197	1.93669	48.2806
6.40404	1.74197	1.93669	48.3029
6.50505	1.74197	1.93669	48.2786
6.60606	1.74197	1.93669	48.2174
6.70707	1.74197	1.93669	48.127
6.80808	1.74197	1.93669	48.0134
6.90909	1.74197	1.93669	47.8815
7.0101	1.74197	1.93669	47.7351
7.11111	1.74197	1.93669	47.5771
7.21212	1.74197	1.93669	47.4099
7.31313	1.74197	1.93669	47.2356
7.41414	1.74197	1.93669	47.0555
7.51515	1.74197	1.93669	46.8708
7.61616	1.74197	1.93669	46.6825
7.71717	1.74197	1.93669	46.4914
7.81818	1.74197	1.93669	46.2981
7.91919	1.74197	1.93669	46.1029
8.0202	1.74197	1.93669	45.9063
8.12121	1.74197	1.93669	45.7086
8.22222	1.74197	1.93669	45.51
8.32323	1.74197	1.93669	45.3106
8.42424	1.74197	1.93669	45.1108
8.52525	1.74197	1.93669	44.9104
8.62626	1.74197	1.93669	44.7098
8.72727	1.74197	1.93669	44.5088
8.82828	1.74197	1.93669	44.3076
8.92929	1.74197	1.93669	44.1063
9.0303	1.74197	1.93669	43.9048
9.13131	1.74197	1.93669	43.7032
9.23232	1.74197	1.93669	43.5015
9.33333	1.74197	1.93669	43.2997
9.43434	1.74197	1.93669	43.0979
9.53535	1.74197	1.93669	42.8961
9.63636	1.74197	1.93669	42.6942
9.73737	1.74197	1.93669	42.4923
9.83838	1.74197	1.93669	42.2903
9.93939	1.74197	1.93669	42.0884
10.0404	1.74197	1.93669	41.8864
10.1414	1.74197	1.93669	41.6844
10.2424	1.74197	1.93669	41.4824
10.3434	1.74197	1.93669	41.2804
10.4444	1.74197	1.93669	41.0784
10.5455	1.74197	1.93669	40.8764
10.6465	1.74197	1.93669	40.6744
10.7475	1.74197	1.93669	40.4724
10.8485	1.74197	1.93669	40.2704
10.9495	1.74197	1.93669	40.0684
11.0505	1.74197	1.93669	39.8664
11.1515	1.74197	1.93669	39.6643
11.2525	1.74197	1.93669	39.4623
11.3535	1.74197	1.93669	39.2603
11.4545	1.74197	1.93669	39.0582
11.5556	1.74197	1.93669	38.8562
11.6566	1.74197	1.93669	38.6541
11.7576	1.74197	1.93669	38.4521
11.8586	1.74197	1.93669	38.25
11.9596	1.74197	1.93669	38.0479
12.0606	1.74197	1.93669	37.8458
12.1616	1.74197	1.93669	37.6437
12.2626	1.74197	1.93669	37.4415
12.3636	1.74197	1.93669	37.2393
12.4646	1.74197	1.93669	37.0371
12.5657	1.74197	1.93669	36.8348
12.6667	1.74197	1.93669	36.6324
12.7677	1.74197	1.93669	36.43
12.8687	1.74197	1.93669	36.2274
12.9697	1.74197	1.93669	36.0247
13.0707	1.74197	1.93669	35.8218
13.1717	1.74197	1.93669	35.6187
13.2727	1.74197	1.93669	35.4153
13.3737	1.74197	1.93669	35.2116
13.4747	1.74197	1.93669	35.0074
13.5758	1.74197	1.93669	34.8026
13.6768	1.74197	1.93669	34.5971
13.7778	1.74197	1.93669	34.3907
13.8788	1.74197	1.93669	34.1831
13.9798	1.74197	1.93669	33.9741
14.0808	1.74197	1.93669	33.7632
14.1818	1.74197	1.93669	33.55
14.2828	1.74197	1.93669	33.3339
14.3838	1.74197	1.93669	33.1141
14.4848	1.74197	1.93669	32.8897
14.5859	1.74197	1.93669	32.6594
14.6869	1.74197	1.93669	32.4217
14.7879	1.74197	1.93669	32.1746
14.8889	1.74197	1.93669	31.9158
14.9899	1.74197	1.93669	31.6421
15.0909	1.74197	1.93669	31.3496
15.1919	1.74197	1.93669	31.0334
15.2929	1.74197	1.93669	30.6873
15.3939	1.74197	1.93669	30.3034
15.4949	1.74197	1.93669	29.872
15.596	1.74197	1.93669	29.3805
15.697	1.74197	1.93669	28.8132
15.798	1.74197	1.93669	28.1502
15.899	1.74197	1.93669	27.3665
16	1.74197	1.93669	26.4305
6	1.74812	2.08095	47.7663
6.10101	1.74812	2.08095	48.0149
6.20202	1.74812	2.08095	48.17
6.30303	1.74812	2.08095	48.2509
6.40404	1.74812	2.08095	48.2732
6.50505	1.74812	2.08095	48.2489
6.60606	1.74812	2.08095	48.1877
6.70707	1.74812	2.08095	48.0973
6.80808	1.74812	2.08095	47.9838
6.90909	1.74812	2.08095	47.8519
7.0101	1.74812	2.08095	47.7054
7.11111	1.74812	2.08095	47.5474
7.21212	1.74812	2.08095	47.3803
7.31313	1.74812	2.08095	47.2059
7.41414	1.74812	2.08095	47.0258
7.51515	1.74812	2.08095	46.8411
7.61616	1.74812	2.08095	46.6529
7.71717	1.74812	2.08095	46.4618
7.81818	1.74812	2.08095	46.2684
7.91919	1.74812	2.08095	46.0732
8.0202	1.74812	2.08095	45.8766
8.12121	1.74812	2.08095	45.6789
8.22222	1.74812	2.08095	45.4803
8.32323	1.74812	2.08095	45.281
8.42424	1.74812	2.08095	45.0811
8.52525	1.74812	2.08095	44.8808
8.62626	1.74812	2.08095	44.6801
8.72727	1.74812	2.08095	44.4791
8.82828	1.74812	2.08095	44.278
8.92929	1.74812	2.08095	44.0766
9.0303	1.74812	2.08095	43.8751
9.13131	1.74812	2.08095	43.6735
9.23232	1.74812	2.08095	43.4718
9.33333	1.74812	2.08095	43.2701
9.43434	1.74812	2.08095	43.0683
9.53535	1.74812	2.08095	42.8664
9.63636	1.74812	2.08095	42.6645
9.73737	1.74812	2.08095	42.4626
9.83838	1.74812	2.08095	42.2607
9.93939	1.74812	2.08095	42.0587
10.0404	1.74812	2.08095	41.8567
10.1414	1.74812	2.08095	41.6548
10.2424	1.74812	2.08095	41.4528
10.3434	1.74812	2.08095	41.2508
10.4444	1.74812	2.08095	41.0488
10.5455	1.74812	2.08095	40.8468
10.6465	1.74812	2.08095	40.6448
10.7475	1.74812	2.08095	40.4427
10.8485	1.74812	2.08095	40.2407
10.9495	1.74812	2.08095	40.0387
11.0505	1.74812	2.08095	39.8367
11.1515	1.74812	2.08095	39.6347
11.2525	1.74812	2.08095	39.4326
11.3535	1.74812	2.08095	39.2306
11.4545	1.74812	2.08095	39.0286
11.5556	1.74812	2.08095	38.8265
11.6566	1.74812	2.08095	38.6245
11.7576	1.74812	2.08095	38.4224
11.8586	1.74812	2.08095	38.2203
11.9596	1.74812	2.08095	38.0182
12.0606	1.74812	2.08095	37.8161
12.1616	1.74812	2.08095	37.614
12.2626	1.74812	2.08095	37.4119
12.3636	1.74812	2.08095	37.2097
12.4646	1.74812	2.08095	37.0074
12.5657	1.74812	2.08095	36.8051
12.6667	1.74812	2.08095	36.6028
12.7677	1.74812	2.08095	36.4003
12.8687	1.74812	2.08095	36.1978
12.9697	1.74812	2.08095	35.9951
13.0707	1.74812	2.08095	35.7922
13.1717	1.74812	2.08095	35.5891
13.2727	1.74812	2.08095	35.3857
13.3737	1.74812	2.08095	35.1819
13.4747	1.74812	2.08095	34.9777
13.5758	1.74812	2.08095	34.7729
13.6768	1.74812	2.08095	34.5674
13.7778	1.74812	2.08095	34.361
13.8788	1.74812	2.08095	34.1534
13.9798	1.74812	2.08095	33.9444
14.0808	1.74812	2.08095	33.7335
14.1818	1.74812	2.08095	33.5204
14.2828	1.74812	2.08095	33.3043
14.3838	1.74812	2.08095	33.0845
14.4848	1.74812	2.08095	32.86
14.5859	1.74812	2.08095	32.6297
14.6869	1.74812	2.08095	32.392
14.7879	1.74812	2.08095	32.145
14.8889	1.74812	2.08095	31.8861
14.9899	1.74812	2.08095	31.6124
15.0909	1.74812	2.08095	31.3199
15.1919	1.74812	2.08095	31.0037
15.2929	1.74812	2.08095	30.6576
15.3939	1.74812	2.08095	30.2738
15.4949	1.74812	2.08095	29.8423
15.596	1.74812	2.08095	29.3508
15.697	1.74812	2.08095	28.7835
15.798	1.74812	2.08095	28.1205
15.899	1.74812	2.08095	27.3369
16	1.74812	2.08095	26.4009
6	1.75426	2.20698	47.7343
6.10101	1.75426	2.20698	47.9829
6.20202	1.75426	2.20698	48.138
6.30303	1.75426	2.20698	48.219
6.40404	1.75426	2.20698	48.2412
6.50505	1.75426	2.20698	48.2169
6.60606	1.75426	2.20698	48.1558
6.70707	1.75426	2.20698	48.0654
6.80808	1.75426	2.20698	47.9518
6.90909	1.75426	2.20698	47.8199
7.0101	1.75426	2.20698	47.6734
7.11111	1.75426	2.20698	47.5154
7.21212	1.75426	2.20698	47.3483
7.31313	1.75426	2.20698	47.1739
7.41414	1.75426	2.20698	46.9938
7.51515	1.75426	2.20698	46.8092
7.61616	1.75426	2.20698	46.6209
7.71717	1.75426	2.20698	46.4298
7.81818	1.75426	2.20698	46.2364
7.91919	1.75426	2.20698	46.0412
8.0202	1.75426	2.20698	45.8446
8.12121	1.75426	2.20698	45.6469
8.22222	1.75426	2.20698	45.4483
8.32323	1.75426	2.20698	45.249
8.42424	1.75426	2.20698	45.0491
8.52525	1.75426	2.20698	44.8488
8.62626	1.75426	2.20698	44.6481
8.72727	1.75426	2.20698	44.4472
8.82828	1.75426	2.20698	44.246
8.92929	1.75426	2.20698	44.0446
9.0303	1.75426	2.20698	43.8431
9.13131	1.75426	2.20698	43.6415
9.23232	1.75426	2.20698	43.4399
9.33333	1.75426	2.20698	43.2381
9.43434	1.75426	2.20698	43.0363
9.53535	1.75426	2.20698	42.8344
9.63636	1.75426	2.20698	42.6325
9.73737	1.75426	2.20698	42.4306
9.83838	1.75426	2.20698	42.2287
9.93939	1.75426	2.20698	42.0267
10.0404	1.75426	2.20698	41.8248
10.1414	1.75426	2.20698	41.6228
10.2424	1.75426	2.20698	41.4208
10.3434	1.75426	2.20698	41.2188
10.4444	1.75426	2.20698	41.0168
10.5455	1.75426	2.20698	40.8148
10.6465	1.75426	2.20698	40.6128
10.7475	1.75426	2.20698	40.4108
10.8485	1.75426	2.20698	40.2088
10.9495	1.75426	2.20698	40.0067
11.0505	1.75426	2.20698	39.8047
11.1515	1.75426	2.20698	39.6027
11.2525	1.75426	2.20698	39.4007
11.3535	1.75426	2.20698	39.1986
11.4545	1.75426	2.20698	38.9966
11.5556	1.75426	2.20698	38.7945
11.6566	1.75426	2.20698	38.5925
11.7576	1.75426	2.20698	38.3904
11.8586	1.75426	2.20698	38.1884
11.9596	1.75426	2.20698	37.9863
12.0606	1.75426	2.20698	37.7842
12.1616	1.75426	2.20698	37.582
12.2626	1.75426	2.20698	37.3799
12.3636	1.75426	2.20698	37.1777
12.4646	1.75426	2.20698	36.9755
12.5657	1.75426	2.20698	36.7732
12.6667	1.75426	2.20698	36.5708
12.7677	1.75426	2.20698	36.3684
12.8687	1.75426	2.20698	36.1658
12.9697	1.75426	2.20698	35.9631
13.0707	1.75426	2.20698	35.7602
13.1717	1.75426	2.20698	35.5571
13.2727	1.75426	2.20698	35.3537
13.3737	1.75426	2.20698	35.1499
13.4747	1.75426	2.20698	34.9457
13.5758	1.75426	2.20698	34.7409
13.6768	1.75426	2.20698	34.5354
13.7778	1.75426	2.20698	34.329
13.8788	1.75426	2.20698	34.1214
13.9798	1.75426	2.20698	33.9124
14.0808	1.75426	2.20698	33.7016
14.1818	1.75426	2.20698	33.4884
14.2828	1.75426	2.20698	33.2723
14.3838	1.75426	2.20698	33.0525
14.4848	1.75426	2.20698	32.8281
14.5859	1.75426	2.20698	32.5978
14.6869	1.75426	2.20698	32.3601
14.7879	1.75426	2.20698	32.113
14.8889	1.75426	2.20698	31.8542
14.9899	1.75426	2.20698	31.5804
15.0909	1.75426	2.20698	31.2879
15.1919	1.75426	2.20698	30.9717
15.2929	1.75426	2.20698	30.6256
15.3939	1.75426	2.20698	30.2418
15.4949	1.75426	2.20698	29.8103
15.596	1.75426	2.20698	29.3188
15.697	1.75426	2.20698	28.7515
15.798	1.75426	2.20698	28.0886
15.899	1.75426	2.20698	27.3049
16	1.75426	2.20698	26.3689
6	1.7604	2.32725	47.7052
6.10101	1.7604	2.32725	47.9538
6.20202	1.7604	2.32725	48.1089
6.30303	1.7604	2.32725	48.1899
6.40404	1.7604	2.32725	48.2122
6.50505	1.7604	2.32725	48.1879
6.60606	1.7604	2.32725	48.1267
6.70707	1.7604	2.32725	48.0363
6.80808	1.7604	2.32725	47.9227
6.90909	1.7604	2.32725	47.7908
7.0101	1.7604	2.32725	47.6444
7.11111	1.7604	2.32725	47.4864
7.21212	1.7604	2.32725	47.3192
7.31313	1.7604	2.32725	47.1449
7.41414	1.7604	2.32725	46.9647
7.51515	1.7604	2.32725	46.7801
7.61616	1.7604	2.32725	46.5918
7.71717	1.7604	2.32725	46.4007
7.81818	1.7604	2.32725	46.2073
7.91919	1.7604	2.32725	46.0122
8.0202	1.7604	2.32725	45.8156
8.12121	1.7604	2.32725	45.6179
8.22222	1.7604	2.32725	45.4192
8.32323	1.7604	2.32725	45.2199
8.42424	1.7604	2.32725	45.02
8.52525	1.7604	2.32725	44.8197
8.62626	1.7604	2.32725	44.619
8.72727	1.7604	2.32725	44.4181
8.82828	1.7604	2.32725	44.2169
8.92929	1.7604	2.32725	44.0156
9.0303	1.7604	2.32725	43.8141
9.13131	1.7604	2.32725	43.6125
9.23232	1.7604	2.32725	43.4108
9.33333	1.7604	2.32725	43.209
9.43434	1.7604	2.32725	43.0072
9.53535	1.7604	2.32725	42.8054
9.63636	1.7604	2.32725	42.6035
9.73737	1.7604	2.32725	42.4016
9.83838	1.7604	2.32725	42.1996
9.93939	1.7604	2.32725	41.9977
10.0404	1.7604	2.32725	41.7957
10.1414	1.7604	2.32725	41.5937
10.2424	1.7604	2.32725	41.3917
10.3434	1.7604	2.32725	41.1897
10.4444	1.7604	2.32725	40.9877
10.5455	1.7604	2.32725	40.7857
10.6465	1.7604	2.32725	40.5837
10.7475	1.7604	2.32725	40.3817
10.8485	1.7604	2.32725	40.1797
10.9495	1.7604	2.32725	39.9777
11.0505	1.7604	2.32725	39.7756
11.1515	1.7604	2.32725	39.5736
11.2525	1.7604	2.32725	39.3716
11.3535	1.7604	2.32725	39.1695
11.4545	1.7604	2.32725	38.9675
11.5556	1.7604	2.32725	38.7655
11.6566	1.7604	2.32725	38.5634
11.7576	1.7604	2.32725	38.3613
11.8586	1.7604	2.32725	38.1593
11.9596	1.7604	2.32725	37.9572
12.0606	1.7604	2.32725	37.7551
12.1616	1.7604	2.32725	37.553
12.2626	1.7604	2.32725	37.3508
12.3636	1.7604	2.32725	37.1486
12.4646	1.7604	2.32725	36.9464
12.5657	1.7604	2.32725	36.7441
12.6667	1.7604	2.32725	36.5417
12.7677	1.7604	2.32725	36.3393
12.8687	1.7604	2.32725	36.1367
12.9697	1.7604	2.32725	35.934
13.0707	1.7604	2.32725	35.7311
13.1717	1.7604	2.32725	35.528
13.2727	1.7604	2.32725	35.3246
13.3737	1.7604	2.32725	35.1209
13.4747	1.7604	2.32725	34.9167
13.5758	1.7604	2.32725	34.7119
13.6768	1.7604	2.32725	34.5064
13.7778	1.7604	2.32725	34.2999
13.8788	1.7604	2.32725	34.0924
13.9798	1.7604	2.32725	33.8834
14.0808	1.7604	2.32725	33.6725
14.1818	1.7604	2.32725	33.4593
14.2828	1.7604	2.32725	33.2432
14.3838	1.7604	2.32725	33.0234
14.4848	1.7604	2.32725	32.799
14.5859	1.7604	2.32725	32.5687
14.6869	1.7604	2.32725	32.331
14.7879	1.7604	2.32725	32.0839
14.8889	1.7604	2.32725	31.8251
14.9899	1.7604	2.32725	31.5514
15.0909	1.7604	2.32725	31.2588
15.1919	1.7604	2.32725	30.9426
15.2929	1.7604	2.32725	30.5965
15.3939	1.7604	2.32725	30.2127
15.4949	1.7604	2.32725	29.7813
15.596	1.7604	2.32725	29.2898
15.697	1.7604	2.32725	28.7224
15.798	1.7604	2.32725	28.0595
15.899	1.7604	2.32725	27.2758
16	1.7604	2.32725	26.3398
6	1.76655	2.43451	47.6745
6.10101	1.76655	2.43451	47.9231
6.20202	1.76655	2.43451	48.0782
6.30303	1.76655	2.43451	48.1592
6.40404	1.76655	2.43451	48.1814
6.50505	1.76655	2.43451	48.1571
6.60606	1.76655	2.43451	48.096
6.70707	1.76655	2.43451	48.0056
6.80808	1.76655	2.43451	47.892
6.90909	1.76655	2.43451	47.7601
7.0101	1.76655	2.43451	47.6136
7.11111	1.76655	2.43451	47.4556
7.21212	1.76655	2.43451	47.2885
7.31313	1.76655	2.43451	47.1141
7.41414	1.76655	2.43451	46.934
7.51515	1.76655	2.43451	46.7494
7.61616	1.76655	2.43451	46.5611
7.71717	1.76655	2.43451	46.37
7.81818	1.76655	2.43451	46.1766
7.91919	1.76655	2.43451	45.9814
8.0202	1.76655	2.43451	45.7848
8.12121	1.76655	2.43451	45.5871
8.22222	1.76655	2.43451	45.3885
8.32323	1.76655	2.43451	45.1892
8.42424	1.76655	2.43451	44.9893
8.52525	1.76655	2.43451	44.789
8.62626	1.76655	2.43451	44.5883
8.72727	1.76655	2.43451	44.3874
8.82828	1.76655	2.43451	44.1862
8.92929	1.76655	2.43451	43.9848
9.0303	1.76655	2.43451	43.7833
9.13131	1.76655	2.43451	43.5817
9.23232	1.76655	2.43451	43.3801
9.33333	1.76655	2.43451	43.1783
9.43434	1.76655	2.43451	42.9765
9.53535	1.76655	2.43451	42.7746
9.63636	1.76655	2.43451	42.5727
9.73737	1.76655	2.43451	42.3708
9.83838	1.76655	2.43451	42.1689
9.93939	1.76655	2.43451	41.9669
10.0404	1.76655	2.43451	41.765
10.1414	1.76655	2.43451	41.563
10.2424	1.76655	2.43451	41.361
10.3434	1.76655	2.43451	41.159
10.4444	1.76655	2.43451	40.957
10.5455	1.76655	2.43451	40.755
10.6465	1.76655	2.43451	40.553
10.7475	1.76655	2.43451	40.351
10.8485	1.76655	2.43451	40.149
10.9495	1.76655	2.43451	39.9469
11.0505	1.76655	2.43451	39.7449
11.1515	1.76655	2.43451	39.5429
11.2525	1.76655	2.43451	39.3409
11.3535	1.76655	2.43451	39.1388
11.4545	1.76655	2.43451	38.9368
11.5556	1.76655	2.43451	38.7347
11.6566	1.76655	2.43451	38.5327
11.7576	1.76655	2.43451	38.3306
11.8586	1.76655	2.43451	38.1285
11.9596	1.76655	2.43451	37.9265
12.0606	1.76655	2.43451	37.7244
12.1616	1.76655	2.43451	37.5222
12.2626	1.76655	2.43451	37.3201
12.3636	1.76655	2.43451	37.1179
12.4646	1.76655	2.43451	36.9157
12.5657	1.76655	2.43451	36.7134
12.6667	1.76655	2.43451	36.511
12.7677	1.76655	2.43451	36.3086
12.8687	1.76655	2.43451	36.106
12.9697	1.76655	2.43451	35.9033
13.0707	1.76655	2.43451	35.7004
13.1717	1.76655	2.43451	35.4973
13.2727	1.76655	2.43451	35.2939
13.3737	1.76655	2.43451	35.0901
13.4747	1.76655	2.43451	34.8859
13.5758	1.76655	2.43451	34.6811
13.6768	1.76655	2.43451	34.4756
13.7778	1.76655	2.43451	34.2692
13.8788	1.76655	2.43451	34.0616
13.9798	1.76655	2.43451	33.8526
14.0808	1.76655	2.43451	33.6418
14.1818	1.76655	2.43451	33.4286
14.2828	1.76655	2.43451	33.2125
14.3838	1.76655	2.43451	32.9927
14.4848	1.76655	2.43451	32.7683
14.5859	1.76655	2.43451	32.538
14.6869	1.76655	2.43451	32.3003
14.7879	1.76655	2.43451	32.0532
14.8889	1.76655	2.43451	31.7944
14.9899	1.76655	2.43451	31.5206
15.0909	1.76655	2.43451	31.2281
15.1919	1.76655	2.43451	30.9119
15.2929	1.76655	2.43451	30.5658
15.3939	1.76655	2.43451	30.182
15.4949	1.76655	2.43451	29.7505
15.596	1.76655	2.43451	29.259
15.697	1.76655	2.43451	28.6917
15.798	1.76655	2.43451	28.0287
15.899	1.76655	2.43451	27.2451
16	1.76655	2.43451	26.3091
6	1.77269	2.55042	47.6516
6.10101	1.77269	2.55042	47.9002
6.20202	1.77269	2.55042	48.0553
6.30303	1.77269	2.55042	48.1363
6.40404	1.77269	2.55042	48.1586
6.50505	1.77269	2.55042	48.1343
6.60606	1.77269	2.55042	48.0731
6.70707	1.77269	2.55042	47.9827
6.80808	1.77269	2.55042	47.8691
6.90909	1.77269	2.55042	47.7372
7.0101	1.77269	2.55042	47.5907
7.11111	1.77269	2.55042	47.4328
7.21212	1.77269	2.55042	47.2656
7.31313	1.77269	2.55042	47.0913
7.41414	1.77269	2.55042	46.9111
7.51515	1.77269	2.55042	46.7265
7.61616	1.77269	2.55042	46.5382
7.71717	1.77269	2.55042	46.3471
7.81818	1.77269	2.55042	46.1537
7.91919	1.77269	2.55042	45.9586
8.0202	1.77269	2.55042	45.762
8.12121	1.77269	2.55042	45.5643
8.22222	1.77269	2.55042	45.3656
8.32323	1.77269	2.55042	45.1663
8.42424	1.77269	2.55042	44.9664
8.52525	1.77269	2.55042	44.7661
8.62626	1.77269	2.55042	44.5654
8.72727	1.77269	2.55042	44.3645
8.82828	1.77269	2.55042	44.1633
8.92929	1.77269	2.55042	43.962
9.0303	1.77269	2.55042	43.7605
9.13131	1.77269	2.55042	43.5589
9.23232	1.77269	2.55042	43.3572
9.33333	1.77269	2.55042	43.1554
9.43434	1.77269	2.55042	42.9536
9.53535	1.77269	2.55042	42.7518
9.63636	1.77269	2.55042	42.5499
9.73737	1.77269	2.55042	42.348
9.83838	1.77269	2.55042	42.146
9.93939	1.77269	2.55042	41.9441
10.0404	1.77269	2.55042	41.7421
10.1414	1.77269	2.55042	41.5401
10.2424	1.77269	2.55042	41.3381
10.3434	1.77269	2.55042	41.1361
10.4444	1.77269	2.55042	40.9341
10.5455	1.77269	2.55042	40.7321
10.6465	1.77269	2.55042	40.5301
10.7475	1.77269	2.55042	40.3281
10.8485	1.77269	2.55042	40.1261
10.9495	1.77269	2.55042	39.9241
11.0505	1.77269	2.55042	39.722
11.1515	1.77269	2.55042	39.52
11.2525	1.77269	2.55042	39.318
11.3535	1.77269	2.55042	39.1159
11.4545	1.77269	2.55042	38.9139
11.5556	1.77269	2.55042	38.7119
11.6566	1.77269	2.55042	38.5098
11.7576	1.77269	2.55042	38.3077
11.8586	1.77269	2.55042	38.1057
11.9596	1.77269	2.55042	37.9036
12.0606	1.77269	2.55042	37.7015
12.1616	1.77269	2.55042	37.4994
12.2626	1.77269	2.55042	37.2972
12.3636	1.77269	2.55042	37.095
12.4646	1.77269	2.55042	36.8928
12.5657	1.77269	2.55042	36.6905
12.6667	1.77269	2.55042	36.4881
12.7677	1.77269	2.55042	36.2857
12.8687	1.77269	2.55042	36.0831
12.9697	1.77269	2.55042	35.8804
13.0707	1.77269	2.55042	35.6775
13.1717	1.77269	2.55042	35.4744
13.2727	1.77269	2.55042	35.271
13.3737	1.77269	2.55042	35.0673
13.4747	1.77269	2.55042	34.8631
13.5758	1.77269	2.55042	34.6583
13.6768	1.77269	2.55042	34.4528
13.7778	1.77269	2.55042	34.2463
13.8788	1.77269	2.55042	34.0388
13.9798	1.77269	2.55042	33.8297
14.0808	1.77269	2.55042	33.6189
14.1818	1.77269	2.55042	33.4057
14.2828	1.77269	2.55042	33.1896
14.3838	1.77269	2.55042	32.9698
14.4848	1.77269	2.55042	32.7454
14.5859	1.77269	2.55042	32.5151
14.6869	1.77269	2.55042	32.2774
14.7879	1.77269	2.55042	32.0303
14.8889	1.77269	2.55042	31.7715
14.9899	1.77269	2.55042	31.4977
15.0909	1.77269	2.55042	31.2052
15.1919	1.77269	2.55042	30.889
15.2929	1.77269	2.55042	30.5429
15.3939	1.77269	2.55042	30.1591
15.4949	1.77269	2.55042	29.7277
15.596	1.77269	2.55042	29.2362
15.697	1.77269	2.55042	28.6688
15.798	1.77269	2.55042	28.0059
15.899	1.77269	2.55042	27.2222
16	1.77269	2.55042	26.2862
6	1.77884	2.64674	47.6228
6.10101	1.77884	2.64674	47.8714
6.20202	1.77884	2.64674	48.0265
6.30303	1.77884	2.64674	48.1075
6.40404	1.77884	2.64674	48.1297
6.50505	1.77884	2.64674	48.1054
6.60606	1.77884	2.64674	48.0442
6.70707	1.77884	2.64674	47.9539
6.80808	1.77884	2.64674	47.8403
6.90909	1.77884	2.64674	47.7084
7.0101	1.77884	2.64674	47.5619
7.11111	1.77884	2.64674	47.4039
7.21212	1.77884	2.64674	47.2368
7.31313	1.77884	2.64674	47.0624
7.41414	1.77884	2.64674	46.8823
7.51515	1.77884	2.64674	46.6976
7.61616	1.77884	2.64674	46.5094
7.71717	1.77884	2.64674	46.3183
7.81818	1.77884	2.64674	46.1249
7.91919	1.77884	2.64674	45.9297
8.0202	1.77884	2.64674	45.7331
8.12121	1.77884	2.64674	45.5354
8.22222	1.77884	2.64674	45.3368
8.32323	1.77884	2.64674	45.1375
8.42424	1.77884	2.64674	44.9376
8.52525	1.77884	2.64674	44.7373
8.62626	1.77884	2.64674	44.5366
8.72727	1.77884	2.64674	44.3356
8.82828	1.77884	2.64674	44.1345
8.92929	1.77884	2.64674	43.9331
9.0303	1.77884	2.64674	43.7316
9.13131	1.77884	2.64674	43.53
9.23232	1.77884	2.64674	43.3283
9.33333	1.77884	2.64674	43.1266
9.43434	1.77884	2.64674	42.9248
9.53535	1.77884	2.64674	42.7229
9.63636	1.77884	2.64674	42.521
9.73737	1.77884	2.64674	42.3191
9.83838	1.77884	2.64674	42.1172
9.93939	1.77884	2.64674	41.9152
10.0404	1.77884	2.64674	41.7133
10.1414	1.77884	2.64674	41.5113
10.2424	1.77884	2.64674	41.3093
10.3434	1.77884	2.64674	41.1073
10.4444	1.77884	2.64674	40.9053
10.5455	1.77884	2.64674	40.7033
10.6465	1.77884	2.64674	40.5013
10.7475	1.77884	2.64674	40.2993
10.8485	1.77884	2.64674	40.0972
10.9495	1.77884	2.64674	39.8952
11.0505	1.77884	2.64674	39.6932
11.1515	1.77884	2.64674	39.4912
11.2525	1.77884	2.64674	39.2891
11.3535	1.77884	2.64674	39.0871
11.4545	1.77884	2.64674	38.8851
11.5556	1.77884	2.64674	38.683
11.6566	1.77884	2.64674	38.481
11.7576	1.77884	2.64674	38.2789
11.8586	1.77884	2.64674	38.0768
11.9596	1.77884	2.64674	37.8747
12.0606	1.77884	2.64674	37.6726
12.1616	1.77884	2.64674	37.4705
12.2626	1.77884	2.64674	37.2684
12.3636	1.77884	2.64674	37.0662
12.4646	1.77884	2.64674	36.8639
12.5657	1.77884	2.64674	36.6616
12.6667	1.77884	2.64674	36.4593
12.7677	1.77884	2.64674	36.2568
12.8687	1.77884	2.64674	36.0543
12.9697	1.77884	2.64674	35.8516
13.0707	1.77884	2.64674	35.6487
13.1717	1.77884	2.64674	35.4456
13.2727	1.77884	2.64674	35.2422
13.3737	1.77884	2.64674	35.0384
13.4747	1.77884	2.64674	34.8342
13.5758	1.77884	2.64674	34.6294
13.6768	1.77884	2.64674	34.4239
13.7778	1.77884	2.64674	34.2175
13.8788	1.77884	2.64674	34.0099
13.9798	1.77884	2.64674	33.8009
14.0808	1.77884	2.64674	33.59
14.1818	1.77884	2.64674	33.3769
14.2828	1.77884	2.64674	33.1608
14.3838	1.77884	2.64674	32.941
14.4848	1.77884	2.64674	32.7166
14.5859	1.77884	2.64674	32.4862
14.6869	1.77884	2.64674	32.2485
14.7879	1.77884	2.64674	32.0015
14.8889	1.77884	2.64674	31.7426
14.9899	1.77884	2.64674	31.4689
15.0909	1.77884	2.64674	31.1764
15.1919	1.77884	2.64674	30.8602
15.2929	1.77884	2.64674	30.5141
15.3939	1.77884	2.64674	30.1303
15.4949	1.77884	2.64674	29.6988
15.596	1.77884	2.64674	29.2073
15.697	1.77884	2.64674	28.64
15.798	1.77884	2.64674	27.977
15.899	1.77884	2.64674	27.1934
16	1.77884	2.64674	26.2574
6	1.78498	2.74464	47.5973
6.10101	1.78498	2.74464	47.8459
6.20202	1.78498	2.74464	48.001
6.30303	1.78498	2.74464	48.082
6.40404	1.78498	2.74464	48.1043
6.50505	1.78498	2.74464	48.08
6.60606	1.78498	2.74464	48.0188
6.70707	1.78498	2.74464	47.9284
6.80808	1.78498	2.74464	47.8148
6.90909	1.78498	2.74464	47.6829
7.0101	1.78498	2.74464	47.5365
7.11111	1.78498	2.74464	47.3785
7.21212	1.78498	2.74464	47.2113
7.31313	1.78498	2.74464	47.037
7.41414	1.78498	2.74464	46.8569
7.51515	1.78498	2.74464	46.6722
7.61616	1.78498	2.74464	46.4839
7.71717	1.78498	2.74464	46.2928
7.81818	1.78498	2.74464	46.0995
7.91919	1.78498	2.74464	45.9043
8.0202	1.78498	2.74464	45.7077
8.12121	1.78498	2.74464	45.51
8.22222	1.78498	2.74464	45.3114
8.32323	1.78498	2.74464	45.112
8.42424	1.78498	2.74464	44.9122
8.52525	1.78498	2.74464	44.7118
8.62626	1.78498	2.74464	44.5112
8.72727	1.78498	2.74464	44.3102
8.82828	1.78498	2.74464	44.109
8.92929	1.78498	2.74464	43.9077
9.0303	1.78498	2.74464	43.7062
9.13131	1.78498	2.74464	43.5046
9.23232	1.78498	2.74464	43.3029
9.33333	1.78498	2.74464	43.1011
9.43434	1.78498	2.74464	42.8993
9.53535	1.78498	2.74464	42.6975
9.63636	1.78498	2.74464	42.4956
9.73737	1.78498	2.74464	42.2937
9.83838	1.78498	2.74464	42.0917
9.93939	1.78498	2.74464	41.8898
10.0404	1.78498	2.74464	41.6878
10.1414	1.78498	2.74464	41.4858
10.2424	1.78498	2.74464	41.2838
10.3434	1.78498	2.74464	41.0818
10.4444	1.78498	2.74464	40.8798
10.5455	1.78498	2.74464	40.6778
10.6465	1.78498	2.74464	40.4758
10.7475	1.78498	2.74464	40.2738
10.8485	1.78498	2.74464	40.0718
10.9495	1.78498	2.74464	39.8698
11.0505	1.78498	2.74464	39.6677
11.1515	1.78498	2.74464	39.4657
11.2525	1.78498	2.74464	39.2637
11.3535	1.78498	2.74464	39.0617
11.4545	1.78498	2.74464	38.8596
11.5556	1.78498	2.74464	38.6576
11.6566	1.78498	2.74464	38.4555
11.7576	1.78498	2.74464	38.2535
11.8586	1.78498	2.74464	38.0514
11.9596	1.78498	2.74464	37.8493
12.0606	1.78498	2.74464	37.6472
12.1616	1.78498	2.74464	37.4451
12.2626	1.78498	2.74464	37.2429
12.3636	1.78498	2.74464	37.0407
12.4646	1.78498	2.74464	36.8385
12.5657	1.78498	2.74464	36.6362
12.6667	1.78498	2.74464	36.4338
12.7677	1.78498	2.74464	36.2314
12.8687	1.78498	2.74464	36.0288
12.9697	1.78498	2.74464	35.8261
13.0707	1.78498	2.74464	35.6232
13.1717	1.78498	2.74464	35.4201
13.2727	1.78498	2.74464	35.2167
13.3737	1.78498	2.74464	35.013
13.4747	1.78498	2.74464	34.8088
13.5758	1.78498	2.74464	34.604
13.6768	1.78498	2.74464	34.3985
13.7778	1.78498	2.74464	34.1921
13.8788	1.78498	2.74464	33.9845
13.9798	1.78498	2.74464	33.7755
14.0808	1.78498	2.74464	33.5646
14.1818	1.78498	2.74464	33.3514
14.2828	1.78498	2.74464	33.1353
14.3838	1.78498	2.74464	32.9155
14.4848	1.78498	2.74464	32.6911
14.5859	1.78498	2.74464	32.4608
14.6869	1.78498	2.74464	32.2231
14.7879	1.78498	2.74464	31.976
14.8889	1.78498	2.74464	31.7172
14.9899	1.78498	2.74464	31.4435
15.0909	1.78498	2.74464	31.151
15.1919	1.78498	2.74464	30.8348
15.2929	1.78498	2.74464	30.4887
15.3939	1.78498	2.74464	30.1048
15.4949	1.78498	2.74464	29.6734
15.596	1.78498	2.74464	29.1819
15.697	1.78498	2.74464	28.6146
15.798	1.78498	2.74464	27.9516
15.899	1.78498	2.74464	27.1679
16	1.78498	2.74464	26.2319
6	1.79112	2.84533	47.5753
6.10101	1.79112	2.84533	47.8239
6.20202	1.79112	2.84533	47.979
6.30303	1.79112	2.84533	48.06
6.40404	1.79112	2.84533	48.0822
6.50505	1.79112	2.84533	48.0579
6.60606	1.79112	2.84533	47.9968
6.70707	1.79112	2.84533	47.9064
6.80808	1.79112	2.84533	47.7928
6.90909	1.79112	2.84533	47.6609
7.0101	1.79112	2.84533	47.5144
7.11111	1.79112	2.84533	47.3564
7.21212	1.79112	2.84533	47.1893
7.31313	1.79112	2.84533	47.0149
7.41414	1.79112	2.84533	46.8348
7.51515	1.79112	2.84533	46.6502
7.61616	1.79112	2.84533	46.4619
7.71717	1.79112	2.84533	46.2708
7.81818	1.79112	2.84533	46.0774
7.91919	1.79112	2.84533	45.8822
8.0202	1.79112	2.84533	45.6856
8.12121	1.79112	2.84533	45.4879
8.22222	1.79112	2.84533	45.2893
8.32323	1.79112	2.84533	45.09
8.42424	1.79112	2.84533	44.8901
8.52525	1.79112	2.84533	44.6898
8.62626	1.79112	2.84533	44.4891
8.72727	1.79112	2.84533	44.2882
8.82828	1.79112	2.84533	44.087
8.92929	1.79112	2.84533	43.8856
9.0303	1.79112	2.84533	43.6841
9.13131	1.79112	2.84533	43.4825
9.23232	1.79112	2.84533	43.2809
9.33333	1.79112	2.84533	43.0791
9.43434	1.79112	2.84533	42.8773
9.53535	1.79112	2.84533	42.6754
9.63636	1.79112	2.84533	42.4735
9.73737	1.79112	2.84533	42.2716
9.83838	1.79112	2.84533	42.0697
9.93939	1.79112	2.84533	41.8677
10.0404	1.79112	2.84533	41.6658
10.1414	1.79112	2.84533	41.4638
10.2424	1.79112	2.84533	41.2618
10.3434	1.79112	2.84533	41.0598
10.4444	1.79112	2.84533	40.8578
10.5455	1.79112	2.84533	40.6558
10.6465	1.79112	2.84533	40.4538
10.7475	1.79112	2.84533	40.2518
10.8485	1.79112	2.84533	40.0497
10.9495	1.79112	2.84533	39.8477
11.0505	1.79112	2.84533	39.6457
11.1515	1.79112	2.84533	39.4437
11.2525	1.79112	2.84533	39.2416
11.3535	1.79112	2.84533	39.0396
11.4545	1.79112	2.84533	38.8376
11.5556	1.79112	2.84533	38.6355
11.6566	1.79112	2.84533	38.4335
11.7576	1.79112	2.84533	38.2314
11.8586	1.79112	2.84533	38.0293
11.9596	1.79112	2.84533	37.8273
12.0606	1.79112	2.84533	37.6252
12.1616	1.79112	2.84533	37.423
12.2626	1.79112	2.84533	37.2209
12.3636	1.79112	2.84533	37.0187
12.4646	1.79112	2.84533	36.8164
12.5657	1.79112	2.84533	36.6142
12.6667	1.79112	2.84533	36.4118
12.7677	1.79112	2.84533	36.2093
12.8687	1.79112	2.84533	36.0068
12.9697	1.79112	2.84533	35.8041
13.0707	1.79112	2.84533	35.6012
13.1717	1.79112	2.84533	35.3981
13.2727	1.79112	2.84533	35.1947
13.3737	1.79112	2.84533	34.9909
13.4747	1.79112	2.84533	34.7867
13.5758	1.79112	2.84533	34.5819
13.6768	1.79112	2.84533	34.3764
13.7778	1.79112	2.84533	34.17
13.8788	1.79112	2.84533	33.9624
13.9798	1.79112	2.84533	33.7534
14.0808	1.79112	2.84533	33.5426
14.1818	1.79112	2.84533	33.3294
14.2828	1.79112	2.84533	33.1133
14.3838	1.79112	2.84533	32.8935
14.4848	1.79112	2.84533	32.6691
14.5859	1.79112	2.84533	32.4388
14.6869	1.79112	2.84533	32.201
14.7879	1.79112	2.84533	31.954
14.8889	1.79112	2.84533	31.6951
14.9899	1.79112	2.84533	31.4214
15.0909	1.79112	2.84533	31.1289
15.1919	1.79112	2.84533	30.8127
15.2929	1.79112	2.84533	30.4666
15.3939	1.79112	2.84533	30.0828
15.4949	1.79112	2.84533	29.6513
15.596	1.79112	2.84533	29.1598
15.697	1.79112	2.84533	28.5925
15.798	1.79112	2.84533	27.9295
15.899	1.79112	2.84533	27.1459
16	1.79112	2.84533	26.2099
6	1.79727	2.92911	47.5478
6.10101	1.79727	2.92911	47.7964
6.20202	1.79727	2.92911	47.9515
6.30303	1.79727	2.92911	48.0325
6.40404	1.79727	2.92911	48.0547
6.50505	1.79727	2.92911	48.0304
6.60606	1.79727	2.92911	47.9693
6.70707	1.79727	2.92911	47.8789
6.80808	1.79727	2.92911	47.7653
6.90909	1.79727	2.92911	47.6334
7.0101	1.79727	2.92911	47.4869
7.11111	1.79727	2.92911	47.3289
7.21212	1.79727	2.92911	47.1618
7.31313	1.79727	2.92911	46.9874
7.41414	1.79727	2.92911	46.8073
7.51515	1.79727	2.92911	46.6227
7.61616	1.79727	2.92911	46.4344
7.71717	1.79727	2.92911	46.2433
7.81818	1.79727	2.92911	46.0499
7.91919	1.79727	2.92911	45.8547
8.0202	1.79727	2.92911	45.6581
8.12121	1.79727	2.92911	45.4604
8.22222	1.79727	2.92911	45.2618
8.32323	1.79727	2.92911	45.0625
8.42424	1.79727	2.92911	44.8626
8.52525	1.79727	2.92911	44.6623
8.62626	1.79727	2.92911	44.4616
8.72727	1.79727	2.92911	44.2607
8.82828	1.79727	2.92911	44.0595
8.92929	1.79727	2.92911	43.8581
9.0303	1.79727	2.92911	43.6566
9.13131	1.79727	2.92911	43.455
9.23232	1.79727	2.92911	43.2534
9.33333	1.79727	2.92911	43.0516
9.43434	1.79727	2.92911	42.8498
9.53535	1.79727	2.92911	42.6479
9.63636	1.79727	2.92911	42.446
9.73737	1.79727	2.92911	42.2441
9.83838	1.79727	2.92911	42.0422
9.93939	1.79727	2.92911	41.8402
10.0404	1.79727	2.92911	41.6383
10.1414	1.79727	2.92911	41.4363
10.2424	1.79727	2.92911	41.2343
10.3434	1.79727	2.92911	41.0323
10.4444	1.79727	2.92911	40.8303
10.5455	1.79727	2.92911	40.6283
10.6465	1.79727	2.92911	40.4263
10.7475	1.79727	2.92911	40.2243
10.8485	1.79727	2.92911	40.0222
10.9495	1.79727	2.92911	39.8202
11.0505	1.79727	2.92911	39.6182
11.1515	1.79727	2.92911	39.4162
11.2525	1.79727	2.92911	39.2141
11.3535	1.79727	2.92911	39.0121
11.4545	1.79727	2.92911	38.8101
11.5556	1.79727	2.92911	38.608
11.6566	1.79727	2.92911	38.406
11.7576	1.79727	2.92911	38.2039
11.8586	1.79727	2.92911	38.0018
11.9596	1.79727	2.92911	37.7998
12.0606	1.79727	2.92911	37.5977
12.1616	1.79727	2.92911	37.3955
12.2626	1.79727	2.92911	37.1934
12.3636	1.79727	2.92911	36.9912
12.4646	1.79727	2.92911	36.789
12.5657	1.79727	2.92911	36.5867
12.6667	1.79727	2.92911	36.3843
12.7677	1.79727	2.92911	36.1818
12.8687	1.79727	2.92911	35.9793
12.9697	1.79727	2.92911	35.7766
13.0707	1.79727	2.92911	35.5737
13.1717	1.79727	2.92911	35.3706
13.2727	1.79727	2.92911	35.1672
13.3737	1.79727	2.92911	34.9634
13.4747	1.79727	2.92911	34.7592
13.5758	1.79727	2.92911	34.5544
13.6768	1.79727	2.92911	34.3489
13.7778	1.79727	2.92911	34.1425
13.8788	1.79727	2.92911	33.9349
13.9798	1.79727	2.92911	33.7259
14.0808	1.79727	2.92911	33.5151
14.1818	1.79727	2.92911	33.3019
14.2828	1.79727	2.92911	33.0858
14.3838	1.79727	2.92911	32.866
14.4848	1.79727	2.92911	32.6416
14.5859	1.79727	2.92911	32.4113
14.6869	1.79727	2.92911	32.1736
14.7879	1.79727	2.92911	31.9265
14.8889	1.79727	2.92911	31.6676
14.9899	1.79727	2.92911	31.3939
15.0909	1.79727	2.92911	31.1014
15.1919	1.79727	2.92911	30.7852
15.2929	1.79727	2.92911	30.4391
15.3939	1.79727	2.92911	30.0553
15.4949	1.79727	2.92911	29.6238
15.596	1.79727	2.92911	29.1323
15.697	1.79727	2.92911	28.565
15.798	1.79727	2.92911	27.902
15.899	1.79727	2.92911	27.1184
16	1.79727	2.92911	26.1824
6	1.80341	3.01725	47.5238
6.10101	1.80341	3.01725	47.7724
6.20202	1.80341	3.01725	47.9275
6.30303	1.80341	3.01725	48.0085
6.40404	1.80341	3.01725	48.0308
6.50505	1.80341	3.01725	48.0065
6.60606	1.80341	3.01725	47.9453
6.70707	1.80341	3.01725	47.8549
6.80808	1.80341	3.01725	47.7413
6.90909	1.80341	3.01725	47.6094
7.0101	1.80341	3.01725	47.463
7.11111	1.80341	3.01725	47.305
7.21212	1.80341	3.01725	47.1378
7.31313	1.80341	3.01725	46.9635
7.41414	1.80341	3.01725	46.7834
7.51515	1.80341	3.01725	46.5987
7.61616	1.80341	3.01725	46.4104
7.71717	1.80341	3.01725	46.2193
7.81818	1.80341	3.01725	46.0259
7.91919	1.80341	3.01725	45.8308
8.0202	1.80341	3.01725	45.6342
8.12121	1.80341	3.01725	45.4365
8.22222	1.80341	3.01725	45.2379
8.32323	1.80341	3.01725	45.0385
8.42424	1.80341	3.01725	44.8387
8.52525	1.80341	3.01725	44.6383
8.62626	1.80341	3.01725	44.4377
8.72727	1.80341	3.01725	44.2367
8.82828	1.80341	3.01725	44.0355
8.92929	1.80341	3.01725	43.8342
9.0303	1.80341	3.01725	43.6327
9.13131	1.80341	3.01725	43.4311
9.23232	1.80341	3.01725	43.2294
9.33333	1.80341	3.01725	43.0276
9.43434	1.80341	3.01725	42.8258
9.53535	1.80341	3.01725	42.624
9.63636	1.80341	3.01725	42.4221
9.73737	1.80341	3.01725	42.2202
9.83838	1.80341	3.01725	42.0182
9.93939	1.80341	3.01725	41.8163
10.0404	1.80341	3.01725	41.6143
10.1414	1.80341	3.01725	41.4123
10.2424	1.80341	3.01725	41.2103
10.3434	1.80341	3.01725	41.0083
10.4444	1.80341	3.01725	40.8063
10.5455	1.80341	3.01725	40.6043
10.6465	1.80341	3.01725	40.4023
10.7475	1.80341	3.01725	40.2003
10.8485	1.80341	3.01725	39.9983
10.9495	1.80341	3.01725	39.7963
11.0505	1.80341	3.01725	39.5942
11.1515	1.80341	3.01725	39.3922
11.2525	1.80341	3.01725	39.1902
11.3535	1.80341	3.01725	38.9882
11.4545	1.80341	3.01725	38.7861
11.5556	1.80341	3.01725	38.5841
11.6566	1.80341	3.01725	38.382
11.7576	1.80341	3.01725	38.18
11.8586	1.80341	3.01725	37.9779
11.9596	1.80341	3.01725	37.7758
12.0606	1.80341	3.01725	37.5737
12.1616	1.80341	3.01725	37.3716
12.2626	1.80341	3.01725	37.1694
12.3636	1.80341	3.01725	36.9672
12.4646	1.80341	3.01725	36.765
12.5657	1.80341	3.01725	36.5627
12.6667	1.80341	3.01725	36.3603
12.7677	1.80341	3.01725	36.1579
12.8687	1.80341	3.01725	35.9553
12.9697	1.80341	3.01725	35.7526
13.0707	1.80341	3.01725	35.5497
13.1717	1.80341	3.01725	35.3466
13.2727	1.80341	3.01725	35.1432
13.3737	1.80341	3.01725	34.9395
13.4747	1.80341	3.01725	34.7353
13.5758	1.80341	3.01725	34.5305
13.6768	1.80341	3.01725	34.325
13.7778	1.80341	3.01725	34.1186
13.8788	1.80341	3.01725	33.911
13.9798	1.80341	3.01725	33.702
14.0808	1.80341	3.01725	33.4911
14.1818	1.80341	3.01725	33.2779
14.2828	1.80341	3.01725	33.0618
14.3838	1.80341	3.01725	32.842
14.4848	1.80341	3.01725	32.6176
14.5859	1.80341	3.01725	32.3873
14.6869	1.80341	3.01725	32.1496
14.7879	1.80341	3.01725	31.9025
14.8889	1.80341	3.01725	31.6437
14.9899	1.80341	3.01725	31.37
15.0909	1.80341	3.01725	31.0775
15.1919	1.80341	3.01725	30.7613
15.2929	1.80341	3.01725	30.4152
15.3939	1.80341	3.01725	30.0313
15.4949	1.80341	3.01725	29.5999
15.596	1.80341	3.01725	29.1084
15.697	1.80341	3.01725	28.5411
15.798	1.80341	3.01725	27.8781
15.899	1.80341	3.01725	27.0944
16	1.80341	3.01725	26.1584
6	1.80955	3.11051	47.5034
6.10101	1.80955	3.11051	47.752
6.20202	1.80955	3.11051	47.9071
6.30303	1.80955	3.11051	47.9881
6.40404	1.80955	3.11051	48.0103
6.50505	1.80955	3.11051	47.986
6.60606	1.80955	3.11051	47.9249
6.70707	1.80955	3.11051	47.8345
6.80808	1.80955	3.11051	47.7209
6.90909	1.80955	3.11051	47.589
7.0101	1.80955	3.11051	47.4425
7.11111	1.80955	3.11051	47.2845
7.21212	1.80955	3.11051	47.1174
7.31313	1.80955	3.11051	46.943
7.41414	1.80955	3.11051	46.7629
7.51515	1.80955	3.11051	46.5782
7.61616	1.80955	3.11051	46.39
7.71717	1.80955	3.11051	46.1989
7.81818	1.80955	3.11051	46.0055
7.91919	1.80955	3.11051	45.8103
8.0202	1.80955	3.11051	45.6137
8.12121	1.80955	3.11051	45.416
8.22222	1.80955	3.11051	45.2174
8.32323	1.80955	3.11051	45.0181
8.42424	1.80955	3.11051	44.8182
8.52525	1.80955	3.11051	44.6179
8.62626	1.80955	3.11051	44.4172
8.72727	1.80955	3.11051	44.2163
8.82828	1.80955	3.11051	44.0151
8.92929	1.80955	3.11051	43.8137
9.0303	1.80955	3.11051	43.6122
9.13131	1.80955	3.11051	43.4106
9.23232	1.80955	3.11051	43.2089
9.33333	1.80955	3.11051	43.0072
9.43434	1.80955	3.11051	42.8054
9.53535	1.80955	3.11051	42.6035
9.63636	1.80955	3.11051	42.4016
9.73737	1.80955	3.11051	42.1997
9.83838	1.80955	3.11051	41.9978
9.93939	1.80955	3.11051	41.7958
10.0404	1.80955	3.11051	41.5939
10.1414	1.80955	3.11051	41.3919
10.2424	1.80955	3.11051	41.1899
10.3434	1.80955	3.11051	40.9879
10.4444	1.80955	3.11051	40.7859
10.5455	1.80955	3.11051	40.5839
10.6465	1.80955	3.11051	40.3819
10.7475	1.80955	3.11051	40.1799
10.8485	1.80955	3.11051	39.9778
10.9495	1.80955	3.11051	39.7758
11.0505	1.80955	3.11051	39.5738
11.1515	1.80955	3.11051	39.3718
11.2525	1.80955	3.11051	39.1697
11.3535	1.80955	3.11051	38.9677
11.4545	1.80955	3.11051	38.7657
11.5556	1.80955	3.11051	38.5636
11.6566	1.80955	3.11051	38.3616
11.7576	1.80955	3.11051	38.1595
11.8586	1.80955	3.11051	37.9574
11.9596	1.80955	3.11051	37.7553
12.0606	1.80955	3.11051	37.5532
12.1616	1.80955	3.11051	37.3511
12.2626	1.80955	3.11051	37.149
12.3636	1.80955	3.11051	36.9468
12.4646	1.80955	3.11051	36.7445
12.5657	1.80955	3.11051	36.5423
12.6667	1.80955	3.11051	36.3399
12.7677	1.80955	3.11051	36.1374
12.8687	1.80955	3.11051	35.9349
12.9697	1.80955	3.11051	35.7322
13.0707	1.80955	3.11051	35.5293
13.1717	1.80955	3.11051	35.3262
13.2727	1.80955	3.11051	35.1228
13.3737	1.80955	3.11051	34.919
13.4747	1.80955	3.11051	34.7148
13.5758	1.80955	3.11051	34.51
13.6768	1.80955	3.11051	34.3045
13.7778	1.80955	3.11051	34.0981
13.8788	1.80955	3.11051	33.8905
13.9798	1.80955	3.11051	33.6815
14.0808	1.80955	3.11051	33.4706
14.1818	1.80955	3.11051	33.2575
14.2828	1.80955	3.11051	33.0414
14.3838	1.80955	3.11051	32.8216
14.4848	1.80955	3.11051	32.5972
14.5859	1.80955	3.11051	32.3669
14.6869	1.80955	3.11051	32.1291
14.7879	1.80955	3.11051	31.8821
14.8889	1.80955	3.11051	31.6232
14.9899	1.80955	3.11051	31.3495
15.0909	1.80955	3.11051	31.057
15.1919	1.80955	3.11051	30.7408
15.2929	1.80955	3.11051	30.3947
15.3939	1.80955	3.11051	30.0109
15.4949	1.80955	3.11051	29.5794
15.596	1.80955	3.11051	29.0879
15.697	1.80955	3.11051	28.5206
15.798	1.80955	3.11051	27.8576
15.899	1.80955	3.11051	27.074
16	1.80955	3.11051	26.138
6	1.8157	3.18849	47.4778
6.10101	1.8157	3.18849	47.7264
6.20202	1.8157	3.18849	47.8815
6.30303	1.8157	3.18849	47.9625
6.40404	1.8157	3.18849	47.9847
6.50505	1.8157	3.18849	47.9604
6.60606	1.8157	3.18849	47.8993
6.70707	1.8157	3.18849	47.8089
6.80808	1.8157	3.18849	47.6953
6.90909	1.8157	3.18849	47.5634
7.0101	1.8157	3.18849	47.4169
7.11111	1.8157	3.18849	47.2589
7.21212	1.8157	3.18849	47.0918
7.31313	1.8157	3.18849	46.9174
7.41414	1.8157	3.18849	46.7373
7.51515	1.8157	3.18849	46.5527
7.61616	1.8157	3.18849	46.3644
7.71717	1.8157	3.18849	46.1733
7.81818	1.8157	3.18849	45.9799
7.91919	1.8157	3.18849	45.7847
8.0202	1.8157	3.18849	45.5881
8.12121	1.8157	3.18849	45.3904
8.22222	1.8157	3.18849	45.1918
8.32323	1.8157	3.18849	44.9925
8.42424	1.8157	3.18849	44.7926
8.52525	1.8157	3.18849	44.5923
8.62626	1.8157	3.18849	44.3916
8.72727	1.8157	3.18849	44.1907
8.82828	1.8157	3.18849	43.9895
8.92929	1.8157	3.18849	43.7881
9.0303	1.8157	3.18849	43.5866
9.13131	1.8157	3.18849	43.385
9.23232	1.8157	3.18849	43.1834
9.33333	1.8157	3.18849	42.9816
9.43434	1.8157	3.18849	42.7798
9.53535	1.8157	3.18849	42.5779
9.63636	1.8157	3.18849	42.376
9.73737	1.8157	3.18849	42.1741
9.83838	1.8157	3.18849	41.9722
9.93939	1.8157	3.18849	41.7702
10.0404	1.8157	3.18849	41.5683
10.1414	1.8157	3.18849	41.3663
10.2424	1.8157	3.18849	41.1643
10.3434	1.8157	3.18849	40.9623
10.4444	1.8157	3.18849	40.7603
10.5455	1.8157	3.18849	40.5583
10.6465	1.8157	3.18849	40.3563
10.7475	1.8157	3.18849	40.1543
10.8485	1.8157	3.18849	39.9523
10.9495	1.8157	3.18849	39.7502
11.0505	1.8157	3.18849	39.5482
11.1515	1.8157	3.18849	39.3462
11.2525	1.8157	3.18849	39.1441
11.3535	1.8157	3.18849	38.9421
11.4545	1.8157	3.18849	38.7401
11.5556	1.8157	3.18849	38.538
11.6566	1.8157	3.18849	38.336
11.7576	1.8157	3.18849	38.1339
11.8586	1.8157	3.18849	37.9318
11.9596	1.8157	3.18849	37.7298
12.0606	1.8157	3.18849	37.5277
12.1616	1.8157	3.18849	37.3255
12.2626	1.8157	3.18849	37.1234
12.3636	1.8157	3.18849	36.9212
12.4646	1.8157	3.18849	36.719
12.5657	1.8157	3.18849	36.5167
12.6667	1.8157	3.18849	36.3143
12.7677	1.8157	3.18849	36.1119
12.8687	1.8157	3.18849	35.9093
12.9697	1.8157	3.18849	35.7066
13.0707	1.8157	3.18849	35.5037
13.1717	1.8157	3.18849	35.3006
13.2727	1.8157	3.18849	35.0972
13.3737	1.8157	3.18849	34.8934
13.4747	1.8157	3.18849	34.6892
13.5758	1.8157	3.18849	34.4844
13.6768	1.8157	3.18849	34.2789
13.7778	1.8157	3.18849	34.0725
13.8788	1.8157	3.18849	33.8649
13.9798	1.8157	3.18849	33.6559
14.0808	1.8157	3.18849	33.4451
14.1818	1.8157	3.18849	33.2319
14.2828	1.8157	3.18849	33.0158
14.3838	1.8157	3.18849	32.796
14.4848	1.8157	3.18849	32.5716
14.5859	1.8157	3.18849	32.3413
14.6869	1.8157	3.18849	32.1036
14.7879	1.8157	3.18849	31.8565
14.8889	1.8157	3.18849	31.5976
14.9899	1.8157	3.18849	31.3239
15.0909	1.8157	3.18849	31.0314
15.1919	1.8157	3.18849	30.7152
15.2929	1.8157	3.18849	30.3691
15.3939	1.8157	3.18849	29.9853
15.4949	1.8157	3.18849	29.5538
15.596	1.8157	3.18849	29.0623
15.697	1.8157	3.18849	28.495
15.798	1.8157	3.18849	27.832
15.899	1.8157	3.18849	27.0484
16	1.8157	3.18849	26.1124
6	1.82184	3.27262	47.4558
6.10101	1.82184	3.27262	47.7044
6.20202	1.82184	3.27262	47.8595
6.30303	1.82184	3.27262	47.9405
6.40404	1.82184	3.27262	47.9627
6.50505	1.82184	3.27262	47.9384
6.60606	1.82184	3.27262	47.8773
6.70707	1.82184	3.27262	47.7869
6.80808	1.82184	3.27262	47.6733
6.90909	1.82184	3.27262	47.5414
7.0101	1.82184	3.27262	47.3949
7.11111	1.82184	3.27262	47.2369
7.21212	1.82184	3.27262	47.0698
7.31313	1.82184	3.27262	46.8954
7.41414	1.82184	3.27262	46.7153
7.51515	1.82184	3.27262	46.5307
7.61616	1.82184	3.27262	46.3424
7.71717	1.82184	3.27262	46.1513
7.81818	1.82184	3.27262	45.9579
7.91919	1.82184	3.27262	45.7627
8.0202	1.82184	3.27262	45.5661
8.12121	1.82184	3.27262	45.3684
8.22222	1.82184	3.27262	45.1698
8.32323	1.82184	3.27262	44.9705
8.42424	1.82184	3.27262	44.7706
8.52525	1.82184	3.27262	44.5703
8.62626	1.82184	3.27262	44.3696
8.72727	1.82184	3.27262	44.1687
8.82828	1.82184	3.27262	43.9675
8.92929	1.82184	3.27262	43.7661
9.0303	1.82184	3.27262	43.5646
9.13131	1.82184	3.27262	43.363
9.23232	1.82184	3.27262	43.1614
9.33333	1.82184	3.27262	42.9596
9.43434	1.82184	3.27262	42.7578
9.53535	1.82184	3.27262	42.5559
9.63636	1.82184	3.27262	42.354
9.73737	1.82184	3.27262	42.1521
9.83838	1.82184	3.27262	41.9502
9.93939	1.82184	3.27262	41.7482
10.0404	1.82184	3.27262	41.5463
10.1414	1.82184	3.27262	41.3443
10.2424	1.82184	3.27262	41.1423
10.3434	1.82184	3.27262	40.9403
10.4444	1.82184	3.27262	40.7383
10.5455	1.82184	3.27262	40.5363
10.6465	1.82184	3.27262	40.3343
10.7475	1.82184	3.27262	40.1323
10.8485	1.82184	3.27262	39.9302
10.9495	1.82184	3.27262	39.7282
11.0505	1.82184	3.27262	39.5262
11.1515	1.82184	3.27262	39.3242
11.2525	1.82184	3.27262	39.1221
11.3535	1.82184	3.27262	38.9201
11.4545	1.82184	3.27262	38.7181
11.5556	1.82184	3.27262	38.516
11.6566	1.82184	3.27262	38.314
11.7576	1.82184	3.27262	38.1119
11.8586	1.82184	3.27262	37.9098
11.9596	1.82184	3.27262	37.7078
12.0606	1.82184	3.27262	37.5056
12.1616	1.82184	3.27262	37.3035
12.2626	1.82184	3.27262	37.1014
12.3636	1.82184	3.27262	36.8992
12.4646	1.82184	3.27262	36.6969
12.5657	1.82184	3.27262	36.4947
12.6667	1.82184	3.27262	36.2923
12.7677	1.82184	3.27262	36.0898
12.8687	1.82184	3.27262	35.8873
12.9697	1.82184	3.27262	35.6846
13.0707	1.82184	3.27262	35.4817
13.1717	1.82184	3.27262	35.2786
13.2727	1.82184	3.27262	35.0752
13.3737	1.82184	3.27262	34.8714
13.4747	1.82184	3.27262	34.6672
13.5758	1.82184	3.27262	34.4624
13.6768	1.82184	3.27262	34.2569
13.7778	1.82184	3.27262	34.0505
13.8788	1.82184	3.27262	33.8429
13.9798	1.82184	3.27262	33.6339
14.0808	1.82184	3.27262	33.4231
14.1818	1.82184	3.27262	33.2099
14.2828	1.82184	3.27262	32.9938
14.3838	1.82184	3.27262	32.774
14.4848	1.82184	3.27262	32.5496
14.5859	1.82184	3.27262	32.3193
14.6869	1.82184	3.27262	32.0815
14.7879	1.82184	3.27262	31.8345
14.8889	1.82184	3.27262	31.5756
14.9899	1.82184	3.27262	31.3019
15.0909	1.82184	3.27262	31.0094
15.1919	1.82184	3.27262	30.6932
15.2929	1.82184	3.27262	30.3471
15.3939	1.82184	3.27262	29.9633
15.4949	1.82184	3.27262	29.5318
15.596	1.82184	3.27262	29.0403
15.697	1.82184	3.27262	28.473
15.798	1.82184	3.27262	27.81
15.899	1.82184	3.27262	27.0264
16	1.82184	3.27262	26.0904
6	1.82798	3.35278	47.4331
6.10101	1.82798	3.35278	47.6817
6.20202	1.82798	3.35278	47.8368
6.30303	1.82798	3.35278	47.9178
6.40404	1.82798	3.35278	47.94
6.50505	1.82798	3.35278	47.9157
6.60606	1.82798	3.35278	47.8545
6.70707	1.82798	3.35278	47.7641
6.80808	1.82798	3.35278	47.6506
6.90909	1.82798	3.35278	47.5187
7.0101	1.82798	3.35278	47.3722
7.11111	1.82798	3.35278	47.2142
7.21212	1.82798	3.35278	47.0471
7.31313	1.82798	3.35278	46.8727
7.41414	1.82798	3.35278	46.6926
7.51515	1.82798	3.35278	46.5079
7.61616	1.82798	3.35278	46.3197
7.71717	1.82798	3.35278	46.1286
7.81818	1.82798	3.35278	45.9352
7.91919	1.82798	3.35278	45.74
8.0202	1.82798	3.35278	45.5434
8.12121	1.82798	3.35278	45.3457
8.22222	1.82798	3.35278	45.1471
8.32323	1.82798	3.35278	44.9478
8.42424	1.82798	3.35278	44.7479
8.52525	1.82798	3.35278	44.5476
8.62626	1.82798	3.35278	44.3469
8.72727	1.82798	3.35278	44.1459
8.82828	1.82798	3.35278	43.9448
8.92929	1.82798	3.35278	43.7434
9.0303	1.82798	3.35278	43.5419
9.13131	1.82798	3.35278	43.3403
9.23232	1.82798	3.35278	43.1386
9.33333	1.82798	3.35278	42.9369
9.43434	1.82798	3.35278	42.7351
9.53535	1.82798	3.35278	42.5332
9.63636	1.82798	3.35278	42.3313
9.73737	1.82798	3.35278	42.1294
9.83838	1.82798	3.35278	41.9275
9.93939	1.82798	3.35278	41.7255
10.0404	1.82798	3.35278	41.5235
10.1414	1.82798	3.35278	41.3216
10.2424	1.82798	3.35278	41.1196
10.3434	1.82798	3.35278	40.9176
10.4444	1.82798	3.35278	40.7156
10.5455	1.82798	3.35278	40.5136
10.6465	1.82798	3.35278	40.3116
10.7475	1.82798	3.35278	40.1096
10.8485	1.82798	3.35278	39.9075
10.9495	1.82798	3.35278	39.7055
11.0505	1.82798	3.35278	39.5035
11.1515	1.82798	3.35278	39.3015
11.2525	1.82798	3.35278	39.0994
11.3535	1.82798	3.35278	38.8974
11.4545	1.82798	3.35278	38.6954
11.5556	1.82798	3.35278	38.4933
11.6566	1.82798	3.35278	38.2913
11.7576	1.82798	3.35278	38.0892
11.8586	1.82798	3.35278	37.8871
11.9596	1.82798	3.35278	37.685
12.0606	1.82798	3.35278	37.4829
12.1616	1.82798	3.35278	37.2808
12.2626	1.82798	3.35278	37.0787
12.3636	1.82798	3.35278	36.8765
12.4646	1.82798	3.35278	36.6742
12.5657	1.82798	3.35278	36.4719
12.6667	1.82798	3.35278	36.2696
12.7677	1.82798	3.35278	36.0671
12.8687	1.82798	3.35278	35.8646
12.9697	1.82798	3.35278	35.6619
13.0707	1.82798	3.35278	35.459
13.1717	1.82798	3.35278	35.2559
13.2727	1.82798	3.35278	35.0525
13.3737	1.82798	3.35278	34.8487
13.4747	1.82798	3.35278	34.6445
13.5758	1.82798	3.35278	34.4397
13.6768	1.82798	3.35278	34.2342
13.7778	1.82798	3.35278	34.0278
13.8788	1.82798	3.35278	33.8202
13.9798	1.82798	3.35278	33.6112
14.0808	1.82798	3.35278	33.4003
14.1818	1.82798	3.35278	33.1872
14.2828	1.82798	3.35278	32.9711
14.3838	1.82798	3.35278	32.7513
14.4848	1.82798	3.35278	32.5268
14.5859	1.82798	3.35278	32.2965
14.6869	1.82798	3.35278	32.0588
14.7879	1.82798	3.35278	31.8118
14.8889	1.82798	3.35278	31.5529
14.9899	1.82798	3.35278	31.2792
15.0909	1.82798	3.35278	30.9867
15.1919	1.82798	3.35278	30.6705
15.2929	1.82798	3.35278	30.3244
15.3939	1.82798	3.35278	29.9406
15.4949	1.82798	3.35278	29.5091
15.596	1.82798	3.35278	29.0176
15.697	1.82798	3.35278	28.4503
15.798	1.82798	3.35278	27.7873
15.899	1.82798	3.35278	27.0037
16	1.82798	3.35278	26.0677
6	1.83413	3.42931	47.4097
6.10101	1.83413	3.42931	47.6583
6.20202	1.83413	3.42931	47.8134
6.30303	1.83413	3.42931	47.8944
6.40404	1.83413	3.42931	47.9166
6.50505	1.83413	3.42931	47.8923
6.60606	1.83413	3.42931	47.8312
6.70707	1.83413	3.42931	47.7408
6.80808	1.83413	3.42931	47.6272
6.90909	1.83413	3.42931	47.4953
7.0101	1.83413	3.42931	47.3488
7.11111	1.83413	3.42931	47.1908
7.21212	1.83413	3.42931	47.0237
7.31313	1.83413	3.42931	46.8493
7.41414	1.83413	3.42931	46.6692
7.51515	1.83413	3.42931	46.4846
7.61616	1.83413	3.42931	46.2963
7.71717	1.83413	3.42931	46.1052
7.81818	1.83413	3.42931	45.9118
7.91919	1.83413	3.42931	45.7166
8.0202	1.83413	3.42931	45.5201
8.12121	1.83413	3.42931	45.3223
8.22222	1.83413	3.42931	45.1237
8.32323	1.83413	3.42931	44.9244
8.42424	1.83413	3.42931	44.7245
8.52525	1.83413	3.42931	44.5242
8.62626	1.83413	3.42931	44.3235
8.72727	1.83413	3.42931	44.1226
8.82828	1.83413	3.42931	43.9214
8.92929	1.83413	3.42931	43.72
9.0303	1.83413	3.42931	43.5186
9.13131	1.83413	3.42931	43.317
9.23232	1.83413	3.42931	43.1153
9.33333	1.83413	3.42931	42.9135
9.43434	1.83413	3.42931	42.7117
9.53535	1.83413	3.42931	42.5098
9.63636	1.83413	3.42931	42.308
9.73737	1.83413	3.42931	42.106
9.83838	1.83413	3.42931	41.9041
9.93939	1.83413	3.42931	41.7021
10.0404	1.83413	3.42931	41.5002
10.1414	1.83413	3.42931	41.2982
10.2424	1.83413	3.42931	41.0962
10.3434	1.83413	3.42931	40.8942
10.4444	1.83413	3.42931	40.6922
10.5455	1.83413	3.42931	40.4902
10.6465	1.83413	3.42931	40.2882
10.7475	1.83413	3.42931	40.0862
10.8485	1.83413	3.42931	39.8842
10.9495	1.83413	3.42931	39.6821
11.0505	1.83413	3.42931	39.4801
11.1515	1.83413	3.42931	39.2781
11.2525	1.83413	3.42931	39.0761
11.3535	1.83413	3.42931	38.874
11.4545	1.83413	3.42931	38.672
11.5556	1.83413	3.42931	38.4699
11.6566	1.83413	3.42931	38.2679
11.7576	1.83413	3.42931	38.0658
11.8586	1.83413	3.42931	37.8638
11.9596	1.83413	3.42931	37.6617
12.0606	1.83413	3.42931	37.4596
12.1616	1.83413	3.42931	37.2574
12.2626	1.83413	3.42931	37.0553
12.3636	1.83413	3.42931	36.8531
12.4646	1.83413	3.42931	36.6509
12.5657	1.83413	3.42931	36.4486
12.6667	1.83413	3.42931	36.2462
12.7677	1.83413	3.42931	36.0438
12.8687	1.83413	3.42931	35.8412
12.9697	1.83413	3.42931	35.6385
13.0707	1.83413	3.42931	35.4356
13.1717	1.83413	3.42931	35.2325
13.2727	1.83413	3.42931	35.0291
13.3737	1.83413	3.42931	34.8254
13.4747	1.83413	3.42931	34.6211
13.5758	1.83413	3.42931	34.4164
13.6768	1.83413	3.42931	34.2108
13.7778	1.83413	3.42931	34.0044
13.8788	1.83413	3.42931	33.7969
13.9798	1.83413	3.42931	33.5878
14.0808	1.83413	3.42931	33.377
14.1818	1.83413	3.42931	33.1638
14.2828	1.83413	3.42931	32.9477
14.3838	1.83413	3.42931	32.7279
14.4848	1.83413	3.42931	32.5035
14.5859	1.83413	3.42931	32.2732
14.6869	1.83413	3.42931	32.0355
14.7879	1.83413	3.42931	31.7884
14.8889	1.83413	3.42931	31.5296
14.9899	1.83413	3.42931	31.2558
15.0909	1.83413	3.42931	30.9633
15.1919	1.83413	3.42931	30.6471
15.2929	1.83413	3.42931	30.301
15.3939	1.83413	3.42931	29.9172
15.4949	1.83413	3.42931	29.4858
15.596	1.83413	3.42931	28.9942
15.697	1.83413	3.42931	28.4269
15.798	1.83413	3.42931	27.764
15.899	1.83413	3.42931	26.9803
16	1.83413	3.42931	26.0443
6	1.84027	3.50251	47.3857
6.10101	1.84027	3.50251	47.6343
6.20202	1.84027	3.50251	47.7894
6.30303	1.84027	3.50251	47.8704
6.40404	1.84027	3.50251	47.8926
6.50505	1.84027	3.50251	47.8684
6.60606	1.84027	3.50251	47.8072
6.70707	1.84027	3.50251	47.7168
6.80808	1.84027	3.50251	47.6032
6.90909	1.84027	3.50251	47.4713
7.0101	1.84027	3.50251	47.3248
7.11111	1.84027	3.50251	47.1668
7.21212	1.84027	3.50251	46.9997
7.31313	1.84027	3.50251	46.8253
7.41414	1.84027	3.50251	46.6452
7.51515	1.84027	3.50251	46.4606
7.61616	1.84027	3.50251	46.2723
7.71717	1.84027	3.50251	46.0812
7.81818	1.84027	3.50251	45.8878
7.91919	1.84027	3.50251	45.6927
8.0202	1.84027	3.50251	45.4961
8.12121	1.84027	3.50251	45.2983
8.22222	1.84027	3.50251	45.0997
8.32323	1.84027	3.50251	44.9004
8.42424	1.84027	3.50251	44.7005
8.52525	1.84027	3.50251	44.5002
8.62626	1.84027	3.50251	44.2995
8.72727	1.84027	3.50251	44.0986
8.82828	1.84027	3.50251	43.8974
8.92929	1.84027	3.50251	43.6961
9.0303	1.84027	3.50251	43.4946
9.13131	1.84027	3.50251	43.293
9.23232	1.84027	3.50251	43.0913
9.33333	1.84027	3.50251	42.8895
9.43434	1.84027	3.50251	42.6877
9.53535	1.84027	3.50251	42.4859
9.63636	1.84027	3.50251	42.284
9.73737	1.84027	3.50251	42.082
9.83838	1.84027	3.50251	41.8801
9.93939	1.84027	3.50251	41.6782
10.0404	1.84027	3.50251	41.4762
10.1414	1.84027	3.50251	41.2742
10.2424	1.84027	3.50251	41.0722
10.3434	1.84027	3.50251	40.8702
10.4444	1.84027	3.50251	40.6682
10.5455	1.84027	3.50251	40.4662
10.6465	1.84027	3.50251	40.2642
10.7475	1.84027	3.50251	40.0622
10.8485	1.84027	3.50251	39.8602
10.9495	1.84027	3.50251	39.6581
11.0505	1.84027	3.50251	39.4561
11.1515	1.84027	3.50251	39.2541
11.2525	1.84027	3.50251	39.0521
11.3535	1.84027	3.50251	38.85
11.4545	1.84027	3.50251	38.648
11.5556	1.84027	3.50251	38.446
11.6566	1.84027	3.50251	38.2439
11.7576	1.84027	3.50251	38.0418
11.8586	1.84027	3.50251	37.8398
11.9596	1.84027	3.50251	37.6377
12.0606	1.84027	3.50251	37.4356
12.1616	1.84027	3.50251	37.2334
12.2626	1.84027	3.50251	37.0313
12.3636	1.84027	3.50251	36.8291
12.4646	1.84027	3.50251	36.6269
12.5657	1.84027	3.50251	36.4246
12.6667	1.84027	3.50251	36.2222
12.7677	1.84027	3.50251	36.0198
12.8687	1.84027	3.50251	35.8172
12.9697	1.84027	3.50251	35.6145
13.0707	1.84027	3.50251	35.4116
13.1717	1.84027	3.50251	35.2085
13.2727	1.84027	3.50251	35.0051
13.3737	1.84027	3.50251	34.8014
13.4747	1.84027	3.50251	34.5971
13.5758	1.84027	3.50251	34.3924
13.6768	1.84027	3.50251	34.1869
13.7778	1.84027	3.50251	33.9804
13.8788	1.84027	3.50251	33.7729
13.9798	1.84027	3.50251	33.5638
14.0808	1.84027	3.50251	33.353
14.1818	1.84027	3.50251	33.1398
14.2828	1.84027	3.50251	32.9237
14.3838	1.84027	3.50251	32.7039
14.4848	1.84027	3.50251	32.4795
14.5859	1.84027	3.50251	32.2492
14.6869	1.84027	3.50251	32.0115
14.7879	1.84027	3.50251	31.7644
14.8889	1.84027	3.50251	31.5056
14.9899	1.84027	3.50251	31.2318
15.0909	1.84027	3.50251	30.9393
15.1919	1.84027	3.50251	30.6231
15.2929	1.84027	3.50251	30.277
15.3939	1.84027	3.50251	29.8932
15.4949	1.84027	3.50251	29.4618
15.596	1.84027	3.50251	28.9703
15.697	1.84027	3.50251	28.4029
15.798	1.84027	3.50251	27.74
15.899	1.84027	3.50251	26.9563
16	1.84027	3.50251	26.0203
6	1.84641	3.58336	47.3653
6.10101	1.84641	3.58336	47.6139
6.20202	1.84641	3.58336	47.769
6.30303	1.84641	3.58336	47.85
6.40404	1.84641	3.58336	47.8723
6.50505	1.84641	3.58336	47.848
6.60606	1.84641	3.58336	47.7868
6.70707	1.84641	3.58336	47.6964
6.80808	1.84641	3.58336	47.5828
6.90909	1.84641	3.58336	47.4509
7.0101	1.84641	3.58336	47.3045
7.11111	1.84641	3.58336	47.1465
7.21212	1.84641	3.58336	46.9793
7.31313	1.84641	3.58336	46.805
7.41414	1.84641	3.58336	46.6249
7.51515	1.84641	3.58336	46.4402
7.61616	1.84641	3.58336	46.2519
7.71717	1.84641	3.58336	46.0608
7.81818	1.84641	3.58336	45.8674
7.91919	1.84641	3.58336	45.6723
8.0202	1.84641	3.58336	45.4757
8.12121	1.84641	3.58336	45.278
8.22222	1.84641	3.58336	45.0794
8.32323	1.84641	3.58336	44.88
8.42424	1.84641	3.58336	44.6802
8.52525	1.84641	3.58336	44.4798
8.62626	1.84641	3.58336	44.2792
8.72727	1.84641	3.58336	44.0782
8.82828	1.84641	3.58336	43.877
8.92929	1.84641	3.58336	43.6757
9.0303	1.84641	3.58336	43.4742
9.13131	1.84641	3.58336	43.2726
9.23232	1.84641	3.58336	43.0709
9.33333	1.84641	3.58336	42.8691
9.43434	1.84641	3.58336	42.6673
9.53535	1.84641	3.58336	42.4655
9.63636	1.84641	3.58336	42.2636
9.73737	1.84641	3.58336	42.0617
9.83838	1.84641	3.58336	41.8597
9.93939	1.84641	3.58336	41.6578
10.0404	1.84641	3.58336	41.4558
10.1414	1.84641	3.58336	41.2538
10.2424	1.84641	3.58336	41.0518
10.3434	1.84641	3.58336	40.8498
10.4444	1.84641	3.58336	40.6478
10.5455	1.84641	3.58336	40.4458
10.6465	1.84641	3.58336	40.2438
10.7475	1.84641	3.58336	40.0418
10.8485	1.84641	3.58336	39.8398
10.9495	1.84641	3.58336	39.6378
11.0505	1.84641	3.58336	39.4357
11.1515	1.84641	3.58336	39.2337
11.2525	1.84641	3.58336	39.0317
11.3535	1.84641	3.58336	38.8297
11.4545	1.84641	3.58336	38.6276
11.5556	1.84641	3.58336	38.4256
11.6566	1.84641	3.58336	38.2235
11.7576	1.84641	3.58336	38.0215
11.8586	1.84641	3.58336	37.8194
11.9596	1.84641	3.58336	37.6173
12.0606	1.84641	3.58336	37.4152
12.1616	1.84641	3.58336	37.2131
12.2626	1.84641	3.58336	37.0109
12.3636	1.84641	3.58336	36.8087
12.4646	1.84641	3.58336	36.6065
12.5657	1.84641	3.58336	36.4042
12.6667	1.84641	3.58336	36.2018
12.7677	1.84641	3.58336	35.9994
12.8687	1.84641	3.58336	35.7968
12.9697	1.84641	3.58336	35.5941
13.0707	1.84641	3.58336	35.3912
13.1717	1.84641	3.58336	35.1881
13.2727	1.84641	3.58336	34.9847
13.3737	1.84641	3.58336	34.781
13.4747	1.84641	3.58336	34.5768
13.5758	1.84641	3.58336	34.372
13.6768	1.84641	3.58336	34.1665
13.7778	1.84641	3.58336	33.9601
13.8788	1.84641	3.58336	33.7525
13.9798	1.84641	3.58336	33.5435
14.0808	1.84641	3.58336	33.3326
14.1818	1.84641	3.58336	33.1194
14.2828	1.84641	3.58336	32.9033
14.3838	1.84641	3.58336	32.6835
14.4848	1.84641	3.58336	32.4591
14.5859	1.84641	3.58336	32.2288
14.6869	1.84641	3.58336	31.9911
14.7879	1.84641	3.58336	31.744
14.8889	1.84641	3.58336	31.4852
14.9899	1.84641	3.58336	31.2115
15.0909	1.84641	3.58336	30.919
15.1919	1.84641	3.58336	30.6027
15.2929	1.84641	3.58336	30.2566
15.3939	1.84641	3.58336	29.8728
15.4949	1.84641	3.58336	29.4414
15.596	1.84641	3.58336	28.9499
15.697	1.84641	3.58336	28.3826
15.798	1.84641	3.58336	27.7196
15.899	1.84641	3.58336	26.9359
16	1.84641	3.58336	25.9999
6	1.85256	3.66144	47.3444
6.10101	1.85256	3.66144	47.593
6.20202	1.85256	3.66144	47.748
6.30303	1.85256	3.66144	47.829
6.40404	1.85256	3.66144	47.8513
6.50505	1.85256	3.66144	47.827
6.60606	1.85256	3.66144	47.7658
6.70707	1.85256	3.66144	47.6754
6.80808	1.85256	3.66144	47.5619
6.90909	1.85256	3.66144	47.4299
7.0101	1.85256	3.66144	47.2835
7.11111	1.85256	3.66144	47.1255
7.21212	1.85256	3.66144	46.9584
7.31313	1.85256	3.66144	46.784
7.41414	1.85256	3.66144	46.6039
7.51515	1.85256	3.66144	46.4192
7.61616	1.85256	3.66144	46.231
7.71717	1.85256	3.66144	46.0398
7.81818	1.85256	3.66144	45.8465
7.91919	1.85256	3.66144	45.6513
8.0202	1.85256	3.66144	45.4547
8.12121	1.85256	3.66144	45.257
8.22222	1.85256	3.66144	45.0584
8.32323	1.85256	3.66144	44.8591
8.42424	1.85256	3.66144	44.6592
8.52525	1.85256	3.66144	44.4589
8.62626	1.85256	3.66144	44.2582
8.72727	1.85256	3.66144	44.0572
8.82828	1.85256	3.66144	43.856
8.92929	1.85256	3.66144	43.6547
9.0303	1.85256	3.66144	43.4532
9.13131	1.85256	3.66144	43.2516
9.23232	1.85256	3.66144	43.0499
9.33333	1.85256	3.66144	42.8482
9.43434	1.85256	3.66144	42.6463
9.53535	1.85256	3.66144	42.4445
9.63636	1.85256	3.66144	42.2426
9.73737	1.85256	3.66144	42.0407
9.83838	1.85256	3.66144	41.8388
9.93939	1.85256	3.66144	41.6368
10.0404	1.85256	3.66144	41.4348
10.1414	1.85256	3.66144	41.2328
10.2424	1.85256	3.66144	41.0309
10.3434	1.85256	3.66144	40.8289
10.4444	1.85256	3.66144	40.6269
10.5455	1.85256	3.66144	40.4249
10.6465	1.85256	3.66144	40.2228
10.7475	1.85256	3.66144	40.0208
10.8485	1.85256	3.66144	39.8188
10.9495	1.85256	3.66144	39.6168
11.0505	1.85256	3.66144	39.4148
11.1515	1.85256	3.66144	39.2127
11.2525	1.85256	3.66144	39.0107
11.3535	1.85256	3.66144	38.8087
11.4545	1.85256	3.66144	38.6066
11.5556	1.85256	3.66144	38.4046
11.6566	1.85256	3.66144	38.2025
11.7576	1.85256	3.66144	38.0005
11.8586	1.85256	3.66144	37.7984
11.9596	1.85256	3.66144	37.5963
12.0606	1.85256	3.66144	37.3942
12.1616	1.85256	3.66144	37.1921
12.2626	1.85256	3.66144	36.9899
12.3636	1.85256	3.66144	36.7877
12.4646	1.85256	3.66144	36.5855
12.5657	1.85256	3.66144	36.3832
12.6667	1.85256	3.66144	36.1809
12.7677	1.85256	3.66144	35.9784
12.8687	1.85256	3.66144	35.7758
12.9697	1.85256	3.66144	35.5731
13.0707	1.85256	3.66144	35.3703
13.1717	1.85256	3.66144	35.1671
13.2727	1.85256	3.66144	34.9638
13.3737	1.85256	3.66144	34.76
13.4747	1.85256	3.66144	34.5558
13.5758	1.85256	3.66144	34.351
13.6768	1.85256	3.66144	34.1455
13.7778	1.85256	3.66144	33.9391
13.8788	1.85256	3.66144	33.7315
13.9798	1.85256	3.66144	33.5225
14.0808	1.85256	3.66144	33.3116
14.1818	1.85256	3.66144	33.0984
14.2828	1.85256	3.66144	32.8823
14.3838	1.85256	3.66144	32.6626
14.4848	1.85256	3.66144	32.4381
14.5859	1.85256	3.66144	32.2078
14.6869	1.85256	3.66144	31.9701
14.7879	1.85256	3.66144	31.7231
14.8889	1.85256	3.66144	31.4642
14.9899	1.85256	3.66144	31.1905
15.0909	1.85256	3.66144	30.898
15.1919	1.85256	3.66144	30.5818
15.2929	1.85256	3.66144	30.2357
15.3939	1.85256	3.66144	29.8518
15.4949	1.85256	3.66144	29.4204
15.596	1.85256	3.66144	28.9289
15.697	1.85256	3.66144	28.3616
15.798	1.85256	3.66144	27.6986
15.899	1.85256	3.66144	26.9149
16	1.85256	3.66144	25.9789
6	1.8587	3.72616	47.3186
6.10101	1.8587	3.72616	47.5672
6.20202	1.8587	3.72616	47.7223
6.30303	1.8587	3.72616	47.8033
6.40404	1.8587	3.72616	47.8255
6.50505	1.8587	3.72616	47.8013
6.60606	1.8587	3.72616	47.7401
6.70707	1.8587	3.72616	47.6497
6.80808	1.8587	3.72616	47.5361
6.90909	1.8587	3.72616	47.4042
7.0101	1.8587	3.72616	47.2577
7.11111	1.8587	3.72616	47.0998
7.21212	1.8587	3.72616	46.9326
7.31313	1.8587	3.72616	46.7583
7.41414	1.8587	3.72616	46.5781
7.51515	1.8587	3.72616	46.3935
7.61616	1.8587	3.72616	46.2052
7.71717	1.8587	3.72616	46.0141
7.81818	1.8587	3.72616	45.8207
7.91919	1.8587	3.72616	45.6256
8.0202	1.8587	3.72616	45.429
8.12121	1.8587	3.72616	45.2313
8.22222	1.8587	3.72616	45.0326
8.32323	1.8587	3.72616	44.8333
8.42424	1.8587	3.72616	44.6334
8.52525	1.8587	3.72616	44.4331
8.62626	1.8587	3.72616	44.2324
8.72727	1.8587	3.72616	44.0315
8.82828	1.8587	3.72616	43.8303
8.92929	1.8587	3.72616	43.629
9.0303	1.8587	3.72616	43.4275
9.13131	1.8587	3.72616	43.2259
9.23232	1.8587	3.72616	43.0242
9.33333	1.8587	3.72616	42.8224
9.43434	1.8587	3.72616	42.6206
9.53535	1.8587	3.72616	42.4188
9.63636	1.8587	3.72616	42.2169
9.73737	1.8587	3.72616	42.015
9.83838	1.8587	3.72616	41.813
9.93939	1.8587	3.72616	41.6111
10.0404	1.8587	3.72616	41.4091
10.1414	1.8587	3.72616	41.2071
10.2424	1.8587	3.72616	41.0051
10.3434	1.8587	3.72616	40.8031
10.4444	1.8587	3.72616	40.6011
10.5455	1.8587	3.72616	40.3991
10.6465	1.8587	3.72616	40.1971
10.7475	1.8587	3.72616	39.9951
10.8485	1.8587	3.72616	39.7931
10.9495	1.8587	3.72616	39.5911
11.0505	1.8587	3.72616	39.389
11.1515	1.8587	3.72616	39.187
11.2525	1.8587	3.72616	38.985
11.3535	1.8587	3.72616	38.7829
11.4545	1.8587	3.72616	38.5809
11.5556	1.8587	3.72616	38.3789
11.6566	1.8587	3.72616	38.1768
11.7576	1.8587	3.72616	37.9747
11.8586	1.8587	3.72616	37.7727
11.9596	1.8587	3.72616	37.5706
12.0606	1.8587	3.72616	37.3685
12.1616	1.8587	3.72616	37.1664
12.2626	1.8587	3.72616	36.9642
12.3636	1.8587	3.72616	36.762
12.4646	1.8587	3.72616	36.5598
12.5657	1.8587	3.72616	36.3575
12.6667	1.8587	3.72616	36.1551
12.7677	1.8587	3.72616	35.9527
12.8687	1.8587	3.72616	35.7501
12.9697	1.8587	3.72616	35.5474
13.0707	1.8587	3.72616	35.3445
13.1717	1.8587	3.72616	35.1414
13.2727	1.8587	3.72616	34.938
13.3737	1.8587	3.72616	34.7343
13.4747	1.8587	3.72616	34.5301
13.5758	1.8587	3.72616	34.3253
13.6768	1.8587	3.72616	34.1198
13.7778	1.8587	3.72616	33.9133
13.8788	1.8587	3.72616	33.7058
13.9798	1.8587	3.72616	33.4967
14.0808	1.8587	3.72616	33.2859
14.1818	1.8587	3.72616	33.0727
14.2828	1.8587	3.72616	32.8566
14.3838	1.8587	3.72616	32.6368
14.4848	1.8587	3.72616	32.4124
14.5859	1.8587	3.72616	32.1821
14.6869	1.8587	3.72616	31.9444
14.7879	1.8587	3.72616	31.6973
14.8889	1.8587	3.72616	31.4385
14.9899	1.8587	3.72616	31.1647
15.0909	1.8587	3.72616	30.8722
15.1919	1.8587	3.72616	30.556
15.2929	1.8587	3.72616	30.2099
15.3939	1.8587	3.72616	29.8261
15.4949	1.8587	3.72616	29.3947
15.596	1.8587	3.72616	28.9032
15.697	1.8587	3.72616	28.3358
15.798	1.8587	3.72616	27.6729
15.899	1.8587	3.72616	26.8892
16	1.8587	3.72616	25.9532
6	1.86484	3.81011	47.3007
6.10101	1.86484	3.81011	47.5493
6.20202	1.86484	3.81011	47.7044
6.30303	1.86484	3.81011	47.7854
6.40404	1.86484	3.81011	47.8076
6.50505	1.86484	3.81011	47.7833
6.60606	1.86484	3.81011	47.7222
6.70707	1.86484	3.81011	47.6318
6.80808	1.86484	3.81011	47.5182
6.90909	1.86484	3.81011	47.3863
7.0101	1.86484	3.81011	47.2398
7.11111	1.86484	3.81011	47.0818
7.21212	1.86484	3.81011	46.9147
7.31313	1.86484	3.81011	46.7403
7.41414	1.86484	3.81011	46.5602
7.51515	1.86484	3.81011	46.3756
7.61616	1.86484	3.81011	46.1873
7.71717	1.86484	3.81011	45.9962
7.81818	1.86484	3.81011	45.8028
7.91919	1.86484	3.81011	45.6076
8.0202	1.86484	3.81011	45.4111
8.12121	1.86484	3.81011	45.2133
8.22222	1.86484	3.81011	45.0147
8.32323	1.86484	3.81011	44.8154
8.42424	1.86484	3.81011	44.6155
8.52525	1.86484	3.81011	44.4152
8.62626	1.86484	3.81011	44.2145
8.72727	1.86484	3.81011	44.0136
8.82828	1.86484	3.81011	43.8124
8.92929	1.86484	3.81011	43.611
9.0303	1.86484	3.81011	43.4096
9.13131	1.86484	3.81011	43.208
9.23232	1.86484	3.81011	43.0063
9.33333	1.86484	3.81011	42.8045
9.43434	1.86484	3.81011	42.6027
9.53535	1.86484	3.81011	42.4008
9.63636	1.86484	3.81011	42.199
9.73737	1.86484	3.81011	41.997
9.83838	1.86484	3.81011	41.7951
9.93939	1.86484	3.81011	41.5931
10.0404	1.86484	3.81011	41.3912
10.1414	1.86484	3.81011	41.1892
10.2424	1.86484	3.81011	40.9872
10.3434	1.86484	3.81011	40.7852
10.4444	1.86484	3.81011	40.5832
10.5455	1.86484	3.81011	40.3812
10.6465	1.86484	3.81011	40.1792
10.7475	1.86484	3.81011	39.9772
10.8485	1.86484	3.81011	39.7752
10.9495	1.86484	3.81011	39.5731
11.0505	1.86484	3.81011	39.3711
11.1515	1.86484	3.81011	39.1691
11.2525	1.86484	3.81011	38.9671
11.3535	1.86484	3.81011	38.765
11.4545	1.86484	3.81011	38.563
11.5556	1.86484	3.81011	38.3609
11.6566	1.86484	3.81011	38.1589
11.7576	1.86484	3.81011	37.9568
11.8586	1.86484	3.81011	37.7548
11.9596	1.86484	3.81011	37.5527
12.0606	1.86484	3.81011	37.3506
12.1616	1.86484	3.81011	37.1484
12.2626	1.86484	3.81011	36.9463
12.3636	1.86484	3.81011	36.7441
12.4646	1.86484	3.81011	36.5419
12.5657	1.86484	3.81011	36.3396
12.6667	1.86484	3.81011	36.1372
12.7677	1.86484	3.81011	35.9348
12.8687	1.86484	3.81011	35.7322
12.9697	1.86484	3.81011	35.5295
13.0707	1.86484	3.81011	35.3266
13.1717	1.86484	3.81011	35.1235
13.2727	1.86484	3.81011	34.9201
13.3737	1.86484	3.81011	34.7163
13.4747	1.86484	3.81011	34.5121
13.5758	1.86484	3.81011	34.3074
13.6768	1.86484	3.81011	34.1018
13.7778	1.86484	3.81011	33.8954
13.8788	1.86484	3.81011	33.6879
13.9798	1.86484	3.81011	33.4788
14.0808	1.86484	3.81011	33.268
14.1818	1.86484	3.81011	33.0548
14.2828	1.86484	3.81011	32.8387
14.3838	1.86484	3.81011	32.6189
14.4848	1.86484	3.81011	32.3945
14.5859	1.86484	3.81011	32.1642
14.6869	1.86484	3.81011	31.9265
14.7879	1.86484	3.81011	31.6794
14.8889	1.86484	3.81011	31.4206
14.9899	1.86484	3.81011	31.1468
15.0909	1.86484	3.81011	30.8543
15.1919	1.86484	3.81011	30.5381
15.2929	1.86484	3.81011	30.192
15.3939	1.86484	3.81011	29.8082
15.4949	1.86484	3.81011	29.3768
15.596	1.86484	3.81011	28.8852
15.697	1.86484	3.81011	28.3179
15.798	1.86484	3.81011	27.655
15.899	1.86484	3.81011	26.8713
16	1.86484	3.81011	25.9353
6	1.87099	3.88105	47.2781
6.10101	1.87099	3.88105	47.5267
6.20202	1.87099	3.88105	47.6818
6.30303	1.87099	3.88105	47.7627
6.40404	1.87099	3.88105	47.785
6.50505	1.87099	3.88105	47.7607
6.60606	1.87099	3.88105	47.6995
6.70707	1.87099	3.88105	47.6091
6.80808	1.87099	3.88105	47.4956
6.90909	1.87099	3.88105	47.3637
7.0101	1.87099	3.88105	47.2172
7.11111	1.87099	3.88105	47.0592
7.21212	1.87099	3.88105	46.8921
7.31313	1.87099	3.88105	46.7177
7.41414	1.87099	3.88105	46.5376
7.51515	1.87099	3.88105	46.3529
7.61616	1.87099	3.88105	46.1647
7.71717	1.87099	3.88105	45.9736
7.81818	1.87099	3.88105	45.7802
7.91919	1.87099	3.88105	45.585
8.0202	1.87099	3.88105	45.3884
8.12121	1.87099	3.88105	45.1907
8.22222	1.87099	3.88105	44.9921
8.32323	1.87099	3.88105	44.7928
8.42424	1.87099	3.88105	44.5929
8.52525	1.87099	3.88105	44.3926
8.62626	1.87099	3.88105	44.1919
8.72727	1.87099	3.88105	43.9909
8.82828	1.87099	3.88105	43.7898
8.92929	1.87099	3.88105	43.5884
9.0303	1.87099	3.88105	43.3869
9.13131	1.87099	3.88105	43.1853
9.23232	1.87099	3.88105	42.9836
9.33333	1.87099	3.88105	42.7819
9.43434	1.87099	3.88105	42.5801
9.53535	1.87099	3.88105	42.3782
9.63636	1.87099	3.88105	42.1763
9.73737	1.87099	3.88105	41.9744
9.83838	1.87099	3.88105	41.7725
9.93939	1.87099	3.88105	41.5705
10.0404	1.87099	3.88105	41.3685
10.1414	1.87099	3.88105	41.1666
10.2424	1.87099	3.88105	40.9646
10.3434	1.87099	3.88105	40.7626
10.4444	1.87099	3.88105	40.5606
10.5455	1.87099	3.88105	40.3586
10.6465	1.87099	3.88105	40.1566
10.7475	1.87099	3.88105	39.9545
10.8485	1.87099	3.88105	39.7525
10.9495	1.87099	3.88105	39.5505
11.0505	1.87099	3.88105	39.3485
11.1515	1.87099	3.88105	39.1465
11.2525	1.87099	3.88105	38.9444
11.3535	1.87099	3.88105	38.7424
11.4545	1.87099	3.88105	38.5403
11.5556	1.87099	3.88105	38.3383
11.6566	1.87099	3.88105	38.1362
11.7576	1.87099	3.88105	37.9342
11.8586	1.87099	3.88105	37.7321
11.9596	1.87099	3.88105	37.53
12.0606	1.87099	3.88105	37.3279
12.1616	1.87099	3.88105	37.1258
12.2626	1.87099	3.88105	36.9236
12.3636	1.87099	3.88105	36.7215
12.4646	1.87099	3.88105	36.5192
12.5657	1.87099	3.88105	36.3169
12.6667	1.87099	3.88105	36.1146
12.7677	1.87099	3.88105	35.9121
12.8687	1.87099	3.88105	35.7096
12.9697	1.87099	3.88105	35.5069
13.0707	1.87099	3.88105	35.304
13.1717	1.87099	3.88105	35.1009
13.2727	1.87099	3.88105	34.8975
13.3737	1.87099	3.88105	34.6937
13.4747	1.87099	3.88105	34.4895
13.5758	1.87099	3.88105	34.2847
13.6768	1.87099	3.88105	34.0792
13.7778	1.87099	3.88105	33.8728
13.8788	1.87099	3.88105	33.6652
13.9798	1.87099	3.88105	33.4562
14.0808	1.87099	3.88105	33.2453
14.1818	1.87099	3.88105	33.0322
14.2828	1.87099	3.88105	32.8161
14.3838	1.87099	3.88105	32.5963
14.4848	1.87099	3.88105	32.3718
14.5859	1.87099	3.88105	32.1415
14.6869	1.87099	3.88105	31.9038
14.7879	1.87099	3.88105	31.6568
14.8889	1.87099	3.88105	31.3979
14.9899	1.87099	3.88105	31.1242
15.0909	1.87099	3.88105	30.8317
15.1919	1.87099	3.88105	30.5155
15.2929	1.87099	3.88105	30.1694
15.3939	1.87099	3.88105	29.7856
15.4949	1.87099	3.88105	29.3541
15.596	1.87099	3.88105	28.8626
15.697	1.87099	3.88105	28.2953
15.798	1.87099	3.88105	27.6323
15.899	1.87099	3.88105	26.8486
16	1.87099	3.88105	25.9127
6	1.87713	3.94994	47.2549
6.10101	1.87713	3.94994	47.5035
6.20202	1.87713	3.94994	47.6586
6.30303	1.87713	3.94994	47.7396
6.40404	1.87713	3.94994	47.7618
6.50505	1.87713	3.94994	47.7375
6.60606	1.87713	3.94994	47.6764
6.70707	1.87713	3.94994	47.586
6.80808	1.87713	3.94994	47.4724
6.90909	1.87713	3.94994	47.3405
7.0101	1.87713	3.94994	47.194
7.11111	1.87713	3.94994	47.036
7.21212	1.87713	3.94994	46.8689
7.31313	1.87713	3.94994	46.6945
7.41414	1.87713	3.94994	46.5144
7.51515	1.87713	3.94994	46.3298
7.61616	1.87713	3.94994	46.1415
7.71717	1.87713	3.94994	45.9504
7.81818	1.87713	3.94994	45.757
7.91919	1.87713	3.94994	45.5618
8.0202	1.87713	3.94994	45.3652
8.12121	1.87713	3.94994	45.1675
8.22222	1.87713	3.94994	44.9689
8.32323	1.87713	3.94994	44.7696
8.42424	1.87713	3.94994	44.5697
8.52525	1.87713	3.94994	44.3694
8.62626	1.87713	3.94994	44.1687
8.72727	1.87713	3.94994	43.9678
8.82828	1.87713	3.94994	43.7666
8.92929	1.87713	3.94994	43.5652
9.0303	1.87713	3.94994	43.3637
9.13131	1.87713	3.94994	43.1621
9.23232	1.87713	3.94994	42.9605
9.33333	1.87713	3.94994	42.7587
9.43434	1.87713	3.94994	42.5569
9.53535	1.87713	3.94994	42.355
9.63636	1.87713	3.94994	42.1531
9.73737	1.87713	3.94994	41.9512
9.83838	1.87713	3.94994	41.7493
9.93939	1.87713	3.94994	41.5473
10.0404	1.87713	3.94994	41.3454
10.1414	1.87713	3.94994	41.1434
10.2424	1.87713	3.94994	40.9414
10.3434	1.87713	3.94994	40.7394
10.4444	1.87713	3.94994	40.5374
10.5455	1.87713	3.94994	40.3354
10.6465	1.87713	3.94994	40.1334
10.7475	1.87713	3.94994	39.9314
10.8485	1.87713	3.94994	39.7294
10.9495	1.87713	3.94994	39.5273
11.0505	1.87713	3.94994	39.3253
11.1515	1.87713	3.94994	39.1233
11.2525	1.87713	3.94994	38.9213
11.3535	1.87713	3.94994	38.7192
11.4545	1.87713	3.94994	38.5172
11.5556	1.87713	3.94994	38.3151
11.6566	1.87713	3.94994	38.1131
11.7576	1.87713	3.94994	37.911
11.8586	1.87713	3.94994	37.7089
11.9596	1.87713	3.94994	37.5069
12.0606	1.87713	3.94994	37.3048
12.1616	1.87713	3.94994	37.1026
12.2626	1.87713	3.94994	36.9005
12.3636	1.87713	3.94994	36.6983
12.4646	1.87713	3.94994	36.4961
12.5657	1.87713	3.94994	36.2938
12.6667	1.87713	3.94994	36.0914
12.7677	1.87713	3.94994	35.889
12.8687	1.87713	3.94994	35.6864
12.9697	1.87713	3.94994	35.4837
13.0707	1.87713	3.94994	35.2808
13.1717	1.87713	3.94994	35.0777
13.2727	1.87713	3.94994	34.8743
13.3737	1.87713	3.94994	34.6705
13.4747	1.87713	3.94994	34.4663
13.5758	1.87713	3.94994	34.2615
13.6768	1.87713	3.94994	34.056
13.7778	1.87713	3.94994	33.8496
13.8788	1.87713	3.94994	33.642
13.9798	1.87713	3.94994	33.433
14.0808	1.87713	3.94994	33.2222
14.1818	1.87713	3.94994	33.009
14.2828	1.87713	3.94994	32.7929
14.3838	1.87713	3.94994	32.5731
14.4848	1.87713	3.94994	32.3487
14.5859	1.87713	3.94994	32.1184
14.6869	1.87713	3.94994	31.8807
14.7879	1.87713	3.94994	31.6336
14.8889	1.87713	3.94994	31.3748
14.9899	1.87713	3.94994	31.101
15.0909	1.87713	3.94994	30.8085
15.1919	1.87713	3.94994	30.4923
15.2929	1.87713	3.94994	30.1462
15.3939	1.87713	3.94994	29.7624
15.4949	1.87713	3.94994	29.3309
15.596	1.87713	3.94994	28.8394
15.697	1.87713	3.94994	28.2721
15.798	1.87713	3.94994	27.6091
15.899	1.87713	3.94994	26.8255
16	1.87713	3.94994	25.8895
6	1.88327	4.02788	47.2354
6.10101	1.88327	4.02788	47.484
6.20202	1.88327	4.02788	47.6391
6.30303	1.88327	4.02788	47.7201
6.40404	1.88327	4.02788	47.7423
6.50505	1.88327	4.02788	47.718
6.60606	1.88327	4.02788	47.6568
6.70707	1.88327	4.02788	47.5664
6.80808	1.88327	4.02788	47.4529
6.90909	1.88327	4.02788	47.321
7.0101	1.88327	4.02788	47.1745
7.11111	1.88327	4.02788	47.0165
7.21212	1.88327	4.02788	46.8494
7.31313	1.88327	4.02788	46.675
7.41414	1.88327	4.02788	46.4949
7.51515	1.88327	4.02788	46.3102
7.61616	1.88327	4.02788	46.122
7.71717	1.88327	4.02788	45.9309
7.81818	1.88327	4.02788	45.7375
7.91919	1.88327	4.02788	45.5423
8.0202	1.88327	4.02788	45.3457
8.12121	1.88327	4.02788	45.148
8.22222	1.88327	4.02788	44.9494
8.32323	1.88327	4.02788	44.7501
8.42424	1.88327	4.02788	44.5502
8.52525	1.88327	4.02788	44.3499
8.62626	1.88327	4.02788	44.1492
8.72727	1.88327	4.02788	43.9482
8.82828	1.88327	4.02788	43.7471
8.92929	1.88327	4.02788	43.5457
9.0303	1.88327	4.02788	43.3442
9.13131	1.88327	4.02788	43.1426
9.23232	1.88327	4.02788	42.9409
9.33333	1.88327	4.02788	42.7392
9.43434	1.88327	4.02788	42.5374
9.53535	1.88327	4.02788	42.3355
9.63636	1.88327	4.02788	42.1336
9.73737	1.88327	4.02788	41.9317
9.83838	1.88327	4.02788	41.7298
9.93939	1.88327	4.02788	41.5278
10.0404	1.88327	4.02788	41.3258
10.1414	1.88327	4.02788	41.1239
10.2424	1.88327	4.02788	40.9219
10.3434	1.88327	4.02788	40.7199
10.4444	1.88327	4.02788	40.5179
10.5455	1.88327	4.02788	40.3159
10.6465	1.88327	4.02788	40.1139
10.7475	1.88327	4.02788	39.9119
10.8485	1.88327	4.02788	39.7098
10.9495	1.88327	4.02788	39.5078
11.0505	1.88327	4.02788	39.3058
11.1515	1.88327	4.02788	39.1038
11.2525	1.88327	4.02788	38.9017
11.3535	1.88327	4.02788	38.6997
11.4545	1.88327	4.02788	38.4977
11.5556	1.88327	4.02788	38.2956
11.6566	1.88327	4.02788	38.0936
11.7576	1.88327	4.02788	37.8915
11.8586	1.88327	4.02788	37.6894
11.9596	1.88327	4.02788	37.4873
12.0606	1.88327	4.02788	37.2852
12.1616	1.88327	4.02788	37.0831
12.2626	1.88327	4.02788	36.881
12.3636	1.88327	4.02788	36.6788
12.4646	1.88327	4.02788	36.4765
12.5657	1.88327	4.02788	36.2742
12.6667	1.88327	4.02788	36.0719
12.7677	1.88327	4.02788	35.8694
12.8687	1.88327	4.02788	35.6669
12.9697	1.88327	4.02788	35.4642
13.0707	1.88327	4.02788	35.2613
13.1717	1.88327	4.02788	35.0582
13.2727	1.88327	4.02788	34.8548
13.3737	1.88327	4.02788	34.651
13.4747	1.88327	4.02788	34.4468
13.5758	1.88327	4.02788	34.242
13.6768	1.88327	4.02788	34.0365
13.7778	1.88327	4.02788	33.8301
13.8788	1.88327	4.02788	33.6225
13.9798	1.88327	4.02788	33.4135
14.0808	1.88327	4.02788	33.2026
14.1818	1.88327	4.02788	32.9895
14.2828	1.88327	4.02788	32.7734
14.3838	1.88327	4.02788	32.5536
14.4848	1.88327	4.02788	32.3292
14.5859	1.88327	4.02788	32.0988
14.6869	1.88327	4.02788	31.8611
14.7879	1.88327	4.02788	31.6141
14.8889	1.88327	4.02788	31.3552
14.9899	1.88327	4.02788	31.0815
15.0909	1.88327	4.02788	30.789
15.1919	1.88327	4.02788	30.4728
15.2929	1.88327	4.02788	30.1267
15.3939	1.88327	4.02788	29.7429
15.4949	1.88327	4.02788	29.3114
15.596	1.88327	4.02788	28.8199
15.697	1.88327	4.02788	28.2526
15.798	1.88327	4.02788	27.5896
15.899	1.88327	4.02788	26.806
16	1.88327	4.02788	25.87
6	1.88942	4.09313	47.2112
6.10101	1.88942	4.09313	47.4598
6.20202	1.88942	4.09313	47.6149
6.30303	1.88942	4.09313	47.6958
6.40404	1.88942	4.09313	47.7181
6.50505	1.88942	4.09313	47.6938
6.60606	1.88942	4.09313	47.6326
6.70707	1.88942	4.09313	47.5422
6.80808	1.88942	4.09313	47.4287
6.90909	1.88942	4.09313	47.2968
7.0101	1.88942	4.09313	47.1503
7.11111	1.88942	4.09313	46.9923
7.21212	1.88942	4.09313	46.8252
7.31313	1.88942	4.09313	46.6508
7.41414	1.88942	4.09313	46.4707
7.51515	1.88942	4.09313	46.286
7.61616	1.88942	4.09313	46.0978
7.71717	1.88942	4.09313	45.9067
7.81818	1.88942	4.09313	45.7133
7.91919	1.88942	4.09313	45.5181
8.0202	1.88942	4.09313	45.3215
8.12121	1.88942	4.09313	45.1238
8.22222	1.88942	4.09313	44.9252
8.32323	1.88942	4.09313	44.7259
8.42424	1.88942	4.09313	44.526
8.52525	1.88942	4.09313	44.3257
8.62626	1.88942	4.09313	44.125
8.72727	1.88942	4.09313	43.924
8.82828	1.88942	4.09313	43.7229
8.92929	1.88942	4.09313	43.5215
9.0303	1.88942	4.09313	43.32
9.13131	1.88942	4.09313	43.1184
9.23232	1.88942	4.09313	42.9167
9.33333	1.88942	4.09313	42.715
9.43434	1.88942	4.09313	42.5132
9.53535	1.88942	4.09313	42.3113
9.63636	1.88942	4.09313	42.1094
9.73737	1.88942	4.09313	41.9075
9.83838	1.88942	4.09313	41.7056
9.93939	1.88942	4.09313	41.5036
10.0404	1.88942	4.09313	41.3016
10.1414	1.88942	4.09313	41.0997
10.2424	1.88942	4.09313	40.8977
10.3434	1.88942	4.09313	40.6957
10.4444	1.88942	4.09313	40.4937
10.5455	1.88942	4.09313	40.2917
10.6465	1.88942	4.09313	40.0897
10.7475	1.88942	4.09313	39.8876
10.8485	1.88942	4.09313	39.6856
10.9495	1.88942	4.09313	39.4836
11.0505	1.88942	4.09313	39.2816
11.1515	1.88942	4.09313	39.0796
11.2525	1.88942	4.09313	38.8775
11.3535	1.88942	4.09313	38.6755
11.4545	1.88942	4.09313	38.4735
11.5556	1.88942	4.09313	38.2714
11.6566	1.88942	4.09313	38.0694
11.7576	1.88942	4.09313	37.8673
11.8586	1.88942	4.09313	37.6652
11.9596	1.88942	4.09313	37.4631
12.0606	1.88942	4.09313	37.261
12.1616	1.88942	4.09313	37.0589
12.2626	1.88942	4.09313	36.8568
12.3636	1.88942	4.09313	36.6546
12.4646	1.88942	4.09313	36.4523
12.5657	1.88942	4.09313	36.25
12.6667	1.88942	4.09313	36.0477
12.7677	1.88942	4.09313	35.8452
12.8687	1.88942	4.09313	35.6427
12.9697	1.88942	4.09313	35.44
13.0707	1.88942	4.09313	35.2371
13.1717	1.88942	4.09313	35.034
13.2727	1.88942	4.09313	34.8306
13.3737	1.88942	4.09313	34.6268
13.4747	1.88942	4.09313	34.4226
13.5758	1.88942	4.09313	34.2178
13.6768	1.88942	4.09313	34.0123
13.7778	1.88942	4.09313	33.8059
13.8788	1.88942	4.09313	33.5983
13.9798	1.88942	4.09313	33.3893
14.0808	1.88942	4.09313	33.1784
14.1818	1.88942	4.09313	32.9653
14.2828	1.88942	4.09313	32.7492
14.3838	1.88942	4.09313	32.5294
14.4848	1.88942	4.09313	32.3049
14.5859	1.88942	4.09313	32.0746
14.6869	1.88942	4.09313	31.8369
14.7879	1.88942	4.09313	31.5899
14.8889	1.88942	4.09313	31.331
14.9899	1.88942	4.09313	31.0573
15.0909	1.88942	4.09313	30.7648
15.1919	1.88942	4.09313	30.4486
15.2929	1.88942	4.09313	30.1025
15.3939	1.88942	4.09313	29.7187
15.4949	1.88942	4.09313	29.2872
15.596	1.88942	4.09313	28.7957
15.697	1.88942	4.09313	28.2284
15.798	1.88942	4.09313	27.5654
15.899	1.88942	4.09313	26.7817
16	1.88942	4.09313	25.8458
6	1.89556	4.16773	47.1906
6.10101	1.89556	4.16773	47.4392
6.20202	1.89556	4.16773	47.5943
6.30303	1.89556	4.16773	47.6753
6.40404	1.89556	4.16773	47.6976
6.50505	1.89556	4.16773	47.6733
6.60606	1.89556	4.16773	47.6121
6.70707	1.89556	4.16773	47.5217
6.80808	1.89556	4.16773	47.4081
6.90909	1.89556	4.16773	47.2762
7.0101	1.89556	4.16773	47.1298
7.11111	1.89556	4.16773	46.9718
7.21212	1.89556	4.16773	46.8046
7.31313	1.89556	4.16773	46.6303
7.41414	1.89556	4.16773	46.4501
7.51515	1.89556	4.16773	46.2655
7.61616	1.89556	4.16773	46.0772
7.71717	1.89556	4.16773	45.8861
7.81818	1.89556	4.16773	45.6927
7.91919	1.89556	4.16773	45.4976
8.0202	1.89556	4.16773	45.301
8.12121	1.89556	4.16773	45.1033
8.22222	1.89556	4.16773	44.9046
8.32323	1.89556	4.16773	44.7053
8.42424	1.89556	4.16773	44.5054
8.52525	1.89556	4.16773	44.3051
8.62626	1.89556	4.16773	44.1044
8.72727	1.89556	4.16773	43.9035
8.82828	1.89556	4.16773	43.7023
8.92929	1.89556	4.16773	43.501
9.0303	1.89556	4.16773	43.2995
9.13131	1.89556	4.16773	43.0979
9.23232	1.89556	4.16773	42.8962
9.33333	1.89556	4.16773	42.6944
9.43434	1.89556	4.16773	42.4926
9.53535	1.89556	4.16773	42.2908
9.63636	1.89556	4.16773	42.0889
9.73737	1.89556	4.16773	41.887
9.83838	1.89556	4.16773	41.685
9.93939	1.89556	4.16773	41.4831
10.0404	1.89556	4.16773	41.2811
10.1414	1.89556	4.16773	41.0791
10.2424	1.89556	4.16773	40.8771
10.3434	1.89556	4.16773	40.6751
10.4444	1.89556	4.16773	40.4731
10.5455	1.89556	4.16773	40.2711
10.6465	1.89556	4.16773	40.0691
10.7475	1.89556	4.16773	39.8671
10.8485	1.89556	4.16773	39.6651
10.9495	1.89556	4.16773	39.4631
11.0505	1.89556	4.16773	39.261
11.1515	1.89556	4.16773	39.059
11.2525	1.89556	4.16773	38.857
11.3535	1.89556	4.16773	38.6549
11.4545	1.89556	4.16773	38.4529
11.5556	1.89556	4.16773	38.2509
11.6566	1.89556	4.16773	38.0488
11.7576	1.89556	4.16773	37.8467
11.8586	1.89556	4.16773	37.6447
11.9596	1.89556	4.16773	37.4426
12.0606	1.89556	4.16773	37.2405
12.1616	1.89556	4.16773	37.0384
12.2626	1.89556	4.16773	36.8362
12.3636	1.89556	4.16773	36.634
12.4646	1.89556	4.16773	36.4318
12.5657	1.89556	4.16773	36.2295
12.6667	1.89556	4.16773	36.0271
12.7677	1.89556	4.16773	35.8247
12.8687	1.89556	4.16773	35.6221
12.9697	1.89556	4.16773	35.4194
13.0707	1.89556	4.16773	35.2165
13.1717	1.89556	4.16773	35.0134
13.2727	1.89556	4.16773	34.81
13.3737	1.89556	4.16773	34.6063
13.4747	1.89556	4.16773	34.4021
13.5758	1.89556	4.16773	34.1973
13.6768	1.89556	4.16773	33.9918
13.7778	1.89556	4.16773	33.7853
13.8788	1.89556	4.16773	33.5778
13.9798	1.89556	4.16773	33.3687
14.0808	1.89556	4.16773	33.1579
14.1818	1.89556	4.16773	32.9447
14.2828	1.89556	4.16773	32.7286
14.3838	1.89556	4.16773	32.5088
14.4848	1.89556	4.16773	32.2844
14.5859	1.89556	4.16773	32.0541
14.6869	1.89556	4.16773	31.8164
14.7879	1.89556	4.16773	31.5693
14.8889	1.89556	4.16773	31.3105
14.9899	1.89556	4.16773	31.0368
15.0909	1.89556	4.16773	30.7442
15.1919	1.89556	4.16773	30.428
15.2929	1.89556	4.16773	30.0819
15.3939	1.89556	4.16773	29.6981
15.4949	1.89556	4.16773	29.2667
15.596	1.89556	4.16773	28.7752
15.697	1.89556	4.16773	28.2078
15.798	1.89556	4.16773	27.5449
15.899	1.89556	4.16773	26.7612
16	1.89556	4.16773	25.8252
6	1.9017	4.24086	47.1696
6.10101	1.9017	4.24086	47.4182
6.20202	1.9017	4.24086	47.5733
6.30303	1.9017	4.24086	47.6542
6.40404	1.9017	4.24086	47.6765
6.50505	1.9017	4.24086	47.6522
6.60606	1.9017	4.24086	47.591
6.70707	1.9017	4.24086	47.5006
6.80808	1.9017	4.24086	47.3871
6.90909	1.9017	4.24086	47.2552
7.0101	1.9017	4.24086	47.1087
7.11111	1.9017	4.24086	46.9507
7.21212	1.9017	4.24086	46.7836
7.31313	1.9017	4.24086	46.6092
7.41414	1.9017	4.24086	46.4291
7.51515	1.9017	4.24086	46.2444
7.61616	1.9017	4.24086	46.0562
7.71717	1.9017	4.24086	45.8651
7.81818	1.9017	4.24086	45.6717
7.91919	1.9017	4.24086	45.4765
8.0202	1.9017	4.24086	45.2799
8.12121	1.9017	4.24086	45.0822
8.22222	1.9017	4.24086	44.8836
8.32323	1.9017	4.24086	44.6843
8.42424	1.9017	4.24086	44.4844
8.52525	1.9017	4.24086	44.2841
8.62626	1.9017	4.24086	44.0834
8.72727	1.9017	4.24086	43.8824
8.82828	1.9017	4.24086	43.6813
8.92929	1.9017	4.24086	43.4799
9.0303	1.9017	4.24086	43.2784
9.13131	1.9017	4.24086	43.0768
9.23232	1.9017	4.24086	42.8751
9.33333	1.9017	4.24086	42.6734
9.43434	1.9017	4.24086	42.4716
9.53535	1.9017	4.24086	42.2697
9.63636	1.9017	4.24086	42.0678
9.73737	1.9017	4.24086	41.8659
9.83838	1.9017	4.24086	41.664
9.93939	1.9017	4.24086	41.462
10.0404	1.9017	4.24086	41.26
10.1414	1.9017	4.24086	41.0581
10.2424	1.9017	4.24086	40.8561
10.3434	1.9017	4.24086	40.6541
10.4444	1.9017	4.24086	40.4521
10.5455	1.9017	4.24086	40.2501
10.6465	1.9017	4.24086	40.0481
10.7475	1.9017	4.24086	39.846
10.8485	1.9017	4.24086	39.644
10.9495	1.9017	4.24086	39.442
11.0505	1.9017	4.24086	39.24
11.1515	1.9017	4.24086	39.038
11.2525	1.9017	4.24086	38.8359
11.3535	1.9017	4.24086	38.6339
11.4545	1.9017	4.24086	38.4319
11.5556	1.9017	4.24086	38.2298
11.6566	1.9017	4.24086	38.0278
11.7576	1.9017	4.24086	37.8257
11.8586	1.9017	4.24086	37.6236
11.9596	1.9017	4.24086	37.4215
12.0606	1.9017	4.24086	37.2194
12.1616	1.9017	4.24086	37.0173
12.2626	1.9017	4.24086	36.8152
12.3636	1.9017	4.24086	36.613
12.4646	1.9017	4.24086	36.4107
12.5657	1.9017	4.24086	36.2084
12.6667	1.9017	4.24086	36.0061
12.7677	1.9017	4.24086	35.8036
12.8687	1.9017	4.24086	35.6011
12.9697	1.9017	4.24086	35.3984
13.0707	1.9017	4.24086	35.1955
13.1717	1.9017	4.24086	34.9924
13.2727	1.9017	4.24086	34.789
13.3737	1.9017	4.24086	34.5852
13.4747	1.9017	4.24086	34.381
13.5758	1.9017	4.24086	34.1762
13.6768	1.9017	4.24086	33.9707
13.7778	1.9017	4.24086	33.7643
13.8788	1.9017	4.24086	33.5567
13.9798	1.9017	4.24086	33.3477
14.0808	1.9017	4.24086	33.1368
14.1818	1.9017	4.24086	32.9237
14.2828	1.9017	4.24086	32.7076
14.3838	1.9017	4.24086	32.4878
14.4848	1.9017	4.24086	32.2633
14.5859	1.9017	4.24086	32.033
14.6869	1.9017	4.24086	31.7953
14.7879	1.9017	4.24086	31.5483
14.8889	1.9017	4.24086	31.2894
14.9899	1.9017	4.24086	31.0157
15.0909	1.9017	4.24086	30.7232
15.1919	1.9017	4.24086	30.407
15.2929	1.9017	4.24086	30.0609
15.3939	1.9017	4.24086	29.6771
15.4949	1.9017	4.24086	29.2456
15.596	1.9017	4.24086	28.7541
15.697	1.9017	4.24086	28.1868
15.798	1.9017	4.24086	27.5238
15.899	1.9017	4.24086	26.7402
16	1.9017	4.24086	25.8042
6	1.90785	4.3126	47.148
6.10101	1.90785	4.3126	47.3966
6.20202	1.90785	4.3126	47.5517
6.30303	1.90785	4.3126	47.6327
6.40404	1.90785	4.3126	47.6549
6.50505	1.90785	4.3126	47.6307
6.60606	1.90785	4.3126	47.5695
6.70707	1.90785	4.3126	47.4791
6.80808	1.90785	4.3126	47.3655
6.90909	1.90785	4.3126	47.2336
7.0101	1.90785	4.3126	47.0871
7.11111	1.90785	4.3126	46.9291
7.21212	1.90785	4.3126	46.762
7.31313	1.90785	4.3126	46.5876
7.41414	1.90785	4.3126	46.4075
7.51515	1.90785	4.3126	46.2229
7.61616	1.90785	4.3126	46.0346
7.71717	1.90785	4.3126	45.8435
7.81818	1.90785	4.3126	45.6501
7.91919	1.90785	4.3126	45.455
8.0202	1.90785	4.3126	45.2584
8.12121	1.90785	4.3126	45.0606
8.22222	1.90785	4.3126	44.862
8.32323	1.90785	4.3126	44.6627
8.42424	1.90785	4.3126	44.4628
8.52525	1.90785	4.3126	44.2625
8.62626	1.90785	4.3126	44.0618
8.72727	1.90785	4.3126	43.8609
8.82828	1.90785	4.3126	43.6597
8.92929	1.90785	4.3126	43.4584
9.0303	1.90785	4.3126	43.2569
9.13131	1.90785	4.3126	43.0553
9.23232	1.90785	4.3126	42.8536
9.33333	1.90785	4.3126	42.6518
9.43434	1.90785	4.3126	42.45
9.53535	1.90785	4.3126	42.2482
9.63636	1.90785	4.3126	42.0463
9.73737	1.90785	4.3126	41.8444
9.83838	1.90785	4.3126	41.6424
9.93939	1.90785	4.3126	41.4405
10.0404	1.90785	4.3126	41.2385
10.1414	1.90785	4.3126	41.0365
10.2424	1.90785	4.3126	40.8345
10.3434	1.90785	4.3126	40.6325
10.4444	1.90785	4.3126	40.4305
10.5455	1.90785	4.3126	40.2285
10.6465	1.90785	4.3126	40.0265
10.7475	1.90785	4.3126	39.8245
10.8485	1.90785	4.3126	39.6225
10.9495	1.90785	4.3126	39.4205
11.0505	1.90785	4.3126	39.2184
11.1515	1.90785	4.3126	39.0164
11.2525	1.90785	4.3126	38.8144
11.3535	1.90785	4.3126	38.6123
11.4545	1.90785	4.3126	38.4103
11.5556	1.90785	4.3126	38.2083
11.6566	1.90785	4.3126	38.0062
11.7576	1.90785	4.3126	37.8041
11.8586	1.90785	4.3126	37.6021
11.9596	1.90785	4.3126	37.4
12.0606	1.90785	4.3126	37.1979
12.1616	1.90785	4.3126	36.9958
12.2626	1.90785	4.3126	36.7936
12.3636	1.90785	4.3126	36.5914
12.4646	1.90785	4.3126	36.3892
12.5657	1.90785	4.3126	36.1869
12.6667	1.90785	4.3126	35.9845
12.7677	1.90785	4.3126	35.7821
12.8687	1.90785	4.3126	35.5795
12.9697	1.90785	4.3126	35.3768
13.0707	1.90785	4.3126	35.1739
13.1717	1.90785	4.3126	34.9708
13.2727	1.90785	4.3126	34.7674
13.3737	1.90785	4.3126	34.5637
13.4747	1.90785	4.3126	34.3595
13.5758	1.90785	4.3126	34.1547
13.6768	1.90785	4.3126	33.9492
13.7778	1.90785	4.3126	33.7427
13.8788	1.90785	4.3126	33.5352
13.9798	1.90785	4.3126	33.3261
14.0808	1.90785	4.3126	33.1153
14.1818	1.90785	4.3126	32.9021
14.2828	1.90785	4.3126	32.686
14.3838	1.90785	4.3126	32.4662
14.4848	1.90785	4.3126	32.2418
14.5859	1.90785	4.3126	32.0115
14.6869	1.90785	4.3126	31.7738
14.7879	1.90785	4.3126	31.5267
14.8889	1.90785	4.3126	31.2679
14.9899	1.90785	4.3126	30.9941
15.0909	1.90785	4.3126	30.7016
15.1919	1.90785	4.3126	30.3854
15.2929	1.90785	4.3126	30.0393
15.3939	1.90785	4.3126	29.6555
15.4949	1.90785	4.3126	29.2241
15.596	1.90785	4.3126	28.7326
15.697	1.90785	4.3126	28.1652
15.798	1.90785	4.3126	27.5023
15.899	1.90785	4.3126	26.7186
16	1.90785	4.3126	25.7826
6	1.91399	4.38306	47.126
6.10101	1.91399	4.38306	47.3746
6.20202	1.91399	4.38306	47.5296
6.30303	1.91399	4.38306	47.6106
6.40404	1.91399	4.38306	47.6329
6.50505	1.91399	4.38306	47.6086
6.60606	1.91399	4.38306	47.5474
6.70707	1.91399	4.38306	47.457
6.80808	1.91399	4.38306	47.3435
6.90909	1.91399	4.38306	47.2115
7.0101	1.91399	4.38306	47.0651
7.11111	1.91399	4.38306	46.9071
7.21212	1.91399	4.38306	46.7399
7.31313	1.91399	4.38306	46.5656
7.41414	1.91399	4.38306	46.3855
7.51515	1.91399	4.38306	46.2008
7.61616	1.91399	4.38306	46.0126
7.71717	1.91399	4.38306	45.8214
7.81818	1.91399	4.38306	45.6281
7.91919	1.91399	4.38306	45.4329
8.0202	1.91399	4.38306	45.2363
8.12121	1.91399	4.38306	45.0386
8.22222	1.91399	4.38306	44.84
8.32323	1.91399	4.38306	44.6406
8.42424	1.91399	4.38306	44.4408
8.52525	1.91399	4.38306	44.2404
8.62626	1.91399	4.38306	44.0398
8.72727	1.91399	4.38306	43.8388
8.82828	1.91399	4.38306	43.6376
8.92929	1.91399	4.38306	43.4363
9.0303	1.91399	4.38306	43.2348
9.13131	1.91399	4.38306	43.0332
9.23232	1.91399	4.38306	42.8315
9.33333	1.91399	4.38306	42.6298
9.43434	1.91399	4.38306	42.4279
9.53535	1.91399	4.38306	42.2261
9.63636	1.91399	4.38306	42.0242
9.73737	1.91399	4.38306	41.8223
9.83838	1.91399	4.38306	41.6203
9.93939	1.91399	4.38306	41.4184
10.0404	1.91399	4.38306	41.2164
10.1414	1.91399	4.38306	41.0144
10.2424	1.91399	4.38306	40.8125
10.3434	1.91399	4.38306	40.6105
10.4444	1.91399	4.38306	40.4085
10.5455	1.91399	4.38306	40.2064
10.6465	1.91399	4.38306	40.0044
10.7475	1.91399	4.38306	39.8024
10.8485	1.91399	4.38306	39.6004
10.9495	1.91399	4.38306	39.3984
11.0505	1.91399	4.38306	39.1964
11.1515	1.91399	4.38306	38.9943
11.2525	1.91399	4.38306	38.7923
11.3535	1.91399	4.38306	38.5903
11.4545	1.91399	4.38306	38.3882
11.5556	1.91399	4.38306	38.1862
11.6566	1.91399	4.38306	37.9841
11.7576	1.91399	4.38306	37.7821
11.8586	1.91399	4.38306	37.58
11.9596	1.91399	4.38306	37.3779
12.0606	1.91399	4.38306	37.1758
12.1616	1.91399	4.38306	36.9737
12.2626	1.91399	4.38306	36.7715
12.3636	1.91399	4.38306	36.5693
12.4646	1.91399	4.38306	36.3671
12.5657	1.91399	4.38306	36.1648
12.6667	1.91399	4.38306	35.9625
12.7677	1.91399	4.38306	35.76
12.8687	1.91399	4.38306	35.5574
12.9697	1.91399	4.38306	35.3547
13.0707	1.91399	4.38306	35.1519
13.1717	1.91399	4.38306	34.9487
13.2727	1.91399	4.38306	34.7453
13.3737	1.91399	4.38306	34.5416
13.4747	1.91399	4.38306	34.3374
13.5758	1.91399	4.38306	34.1326
13.6768	1.91399	4.38306	33.9271
13.7778	1.91399	4.38306	33.7207
13.8788	1.91399	4.38306	33.5131
13.9798	1.91399	4.38306	33.3041
14.0808	1.91399	4.38306	33.0932
14.1818	1.91399	4.38306	32.88
14.2828	1.91399	4.38306	32.6639
14.3838	1.91399	4.38306	32.4442
14.4848	1.91399	4.38306	32.2197
14.5859	1.91399	4.38306	31.9894
14.6869	1.91399	4.38306	31.7517
14.7879	1.91399	4.38306	31.5047
14.8889	1.91399	4.38306	31.2458
14.9899	1.91399	4.38306	30.9721
15.0909	1.91399	4.38306	30.6796
15.1919	1.91399	4.38306	30.3634
15.2929	1.91399	4.38306	30.0173
15.3939	1.91399	4.38306	29.6334
15.4949	1.91399	4.38306	29.202
15.596	1.91399	4.38306	28.7105
15.697	1.91399	4.38306	28.1432
15.798	1.91399	4.38306	27.4802
15.899	1.91399	4.38306	26.6965
16	1.91399	4.38306	25.7605
6	1.92013	4.45232	47.1034
6.10101	1.92013	4.45232	47.352
6.20202	1.92013	4.45232	47.5071
6.30303	1.92013	4.45232	47.588
6.40404	1.92013	4.45232	47.6103
6.50505	1.92013	4.45232	47.586
6.60606	1.92013	4.45232	47.5248
6.70707	1.92013	4.45232	47.4344
6.80808	1.92013	4.45232	47.3209
6.90909	1.92013	4.45232	47.189
7.0101	1.92013	4.45232	47.0425
7.11111	1.92013	4.45232	46.8845
7.21212	1.92013	4.45232	46.7174
7.31313	1.92013	4.45232	46.543
7.41414	1.92013	4.45232	46.3629
7.51515	1.92013	4.45232	46.1782
7.61616	1.92013	4.45232	45.99
7.71717	1.92013	4.45232	45.7989
7.81818	1.92013	4.45232	45.6055
7.91919	1.92013	4.45232	45.4103
8.0202	1.92013	4.45232	45.2137
8.12121	1.92013	4.45232	45.016
8.22222	1.92013	4.45232	44.8174
8.32323	1.92013	4.45232	44.6181
8.42424	1.92013	4.45232	44.4182
8.52525	1.92013	4.45232	44.2179
8.62626	1.92013	4.45232	44.0172
8.72727	1.92013	4.45232	43.8162
8.82828	1.92013	4.45232	43.6151
8.92929	1.92013	4.45232	43.4137
9.0303	1.92013	4.45232	43.2122
9.13131	1.92013	4.45232	43.0106
9.23232	1.92013	4.45232	42.8089
9.33333	1.92013	4.45232	42.6072
9.43434	1.92013	4.45232	42.4054
9.53535	1.92013	4.45232	42.2035
9.63636	1.92013	4.45232	42.0016
9.73737	1.92013	4.45232	41.7997
9.83838	1.92013	4.45232	41.5978
9.93939	1.92013	4.45232	41.3958
10.0404	1.92013	4.45232	41.1938
10.1414	1.92013	4.45232	40.9919
10.2424	1.92013	4.45232	40.7899
10.3434	1.92013	4.45232	40.5879
10.4444	1.92013	4.45232	40.3859
10.5455	1.92013	4.45232	40.1839
10.6465	1.92013	4.45232	39.9818
10.7475	1.92013	4.45232	39.7798
10.8485	1.92013	4.45232	39.5778
10.9495	1.92013	4.45232	39.3758
11.0505	1.92013	4.45232	39.1738
11.1515	1.92013	4.45232	38.9717
11.2525	1.92013	4.45232	38.7697
11.3535	1.92013	4.45232	38.5677
11.4545	1.92013	4.45232	38.3656
11.5556	1.92013	4.45232	38.1636
11.6566	1.92013	4.45232	37.9615
11.7576	1.92013	4.45232	37.7595
11.8586	1.92013	4.45232	37.5574
11.9596	1.92013	4.45232	37.3553
12.0606	1.92013	4.45232	37.1532
12.1616	1.92013	4.45232	36.9511
12.2626	1.92013	4.45232	36.7489
12.3636	1.92013	4.45232	36.5468
12.4646	1.92013	4.45232	36.3445
12.5657	1.92013	4.45232	36.1422
12.6667	1.92013	4.45232	35.9399
12.7677	1.92013	4.45232	35.7374
12.8687	1.92013	4.45232	35.5349
12.9697	1.92013	4.45232	35.3322
13.0707	1.92013	4.45232	35.1293
13.1717	1.92013	4.45232	34.9262
13.2727	1.92013	4.45232	34.7228
13.3737	1.92013	4.45232	34.519
13.4747	1.92013	4.45232	34.3148
13.5758	1.92013	4.45232	34.11
13.6768	1.92013	4.45232	33.9045
13.7778	1.92013	4.45232	33.6981
13.8788	1.92013	4.45232	33.4905
13.9798	1.92013	4.45232	33.2815
14.0808	1.92013	4.45232	33.0706
14.1818	1.92013	4.45232	32.8574
14.2828	1.92013	4.45232	32.6414
14.3838	1.92013	4.45232	32.4216
14.4848	1.92013	4.45232	32.1971
14.5859	1.92013	4.45232	31.9668
14.6869	1.92013	4.45232	31.7291
14.7879	1.92013	4.45232	31.4821
14.8889	1.92013	4.45232	31.2232
14.9899	1.92013	4.45232	30.9495
15.0909	1.92013	4.45232	30.657
15.1919	1.92013	4.45232	30.3408
15.2929	1.92013	4.45232	29.9947
15.3939	1.92013	4.45232	29.6108
15.4949	1.92013	4.45232	29.1794
15.596	1.92013	4.45232	28.6879
15.697	1.92013	4.45232	28.1206
15.798	1.92013	4.45232	27.4576
15.899	1.92013	4.45232	26.6739
16	1.92013	4.45232	25.738
6	1.92628	4.53165	47.0845
6.10101	1.92628	4.53165	47.3331
6.20202	1.92628	4.53165	47.4882
6.30303	1.92628	4.53165	47.5692
6.40404	1.92628	4.53165	47.5914
6.50505	1.92628	4.53165	47.5672
6.60606	1.92628	4.53165	47.506
6.70707	1.92628	4.53165	47.4156
6.80808	1.92628	4.53165	47.302
6.90909	1.92628	4.53165	47.1701
7.0101	1.92628	4.53165	47.0236
7.11111	1.92628	4.53165	46.8656
7.21212	1.92628	4.53165	46.6985
7.31313	1.92628	4.53165	46.5241
7.41414	1.92628	4.53165	46.344
7.51515	1.92628	4.53165	46.1594
7.61616	1.92628	4.53165	45.9711
7.71717	1.92628	4.53165	45.78
7.81818	1.92628	4.53165	45.5866
7.91919	1.92628	4.53165	45.3915
8.0202	1.92628	4.53165	45.1949
8.12121	1.92628	4.53165	44.9971
8.22222	1.92628	4.53165	44.7985
8.32323	1.92628	4.53165	44.5992
8.42424	1.92628	4.53165	44.3993
8.52525	1.92628	4.53165	44.199
8.62626	1.92628	4.53165	43.9983
8.72727	1.92628	4.53165	43.7974
8.82828	1.92628	4.53165	43.5962
8.92929	1.92628	4.53165	43.3949
9.0303	1.92628	4.53165	43.1934
9.13131	1.92628	4.53165	42.9918
9.23232	1.92628	4.53165	42.7901
9.33333	1.92628	4.53165	42.5883
9.43434	1.92628	4.53165	42.3865
9.53535	1.92628	4.53165	42.1847
9.63636	1.92628	4.53165	41.9828
9.73737	1.92628	4.53165	41.7808
9.83838	1.92628	4.53165	41.5789
9.93939	1.92628	4.53165	41.377
10.0404	1.92628	4.53165	41.175
10.1414	1.92628	4.53165	40.973
10.2424	1.92628	4.53165	40.771
10.3434	1.92628	4.53165	40.569
10.4444	1.92628	4.53165	40.367
10.5455	1.92628	4.53165	40.165
10.6465	1.92628	4.53165	39.963
10.7475	1.92628	4.53165	39.761
10.8485	1.92628	4.53165	39.559
10.9495	1.92628	4.53165	39.3569
11.0505	1.92628	4.53165	39.1549
11.1515	1.92628	4.53165	38.9529
11.2525	1.92628	4.53165	38.7509
11.3535	1.92628	4.53165	38.5488
11.4545	1.92628	4.53165	38.3468
11.5556	1.92628	4.53165	38.1447
11.6566	1.92628	4.53165	37.9427
11.7576	1.92628	4.53165	37.7406
11.8586	1.92628	4.53165	37.5386
11.9596	1.92628	4.53165	37.3365
12.0606	1.92628	4.53165	37.1344
12.1616	1.92628	4.53165	36.9322
12.2626	1.92628	4.53165	36.7301
12.3636	1.92628	4.53165	36.5279
12.4646	1.92628	4.53165	36.3257
12.5657	1.92628	4.53165	36.1234
12.6667	1.92628	4.53165	35.921
12.7677	1.92628	4.53165	35.7186
12.8687	1.92628	4.53165	35.516
12.9697	1.92628	4.53165	35.3133
13.0707	1.92628	4.53165	35.1104
13.1717	1.92628	4.53165	34.9073
13.2727	1.92628	4.53165	34.7039
13.3737	1.92628	4.53165	34.5002
13.4747	1.92628	4.53165	34.2959
13.5758	1.92628	4.53165	34.0912
13.6768	1.92628	4.53165	33.8857
13.7778	1.92628	4.53165	33.6792
13.8788	1.92628	4.53165	33.4717
13.9798	1.92628	4.53165	33.2626
14.0808	1.92628	4.53165	33.0518
14.1818	1.92628	4.53165	32.8386
14.2828	1.92628	4.53165	32.6225
14.3838	1.92628	4.53165	32.4027
14.4848	1.92628	4.53165	32.1783
14.5859	1.92628	4.53165	31.948
14.6869	1.92628	4.53165	31.7103
14.7879	1.92628	4.53165	31.4632
14.8889	1.92628	4.53165	31.2044
14.9899	1.92628	4.53165	30.9306
15.0909	1.92628	4.53165	30.6381
15.1919	1.92628	4.53165	30.3219
15.2929	1.92628	4.53165	29.9758
15.3939	1.92628	4.53165	29.592
15.4949	1.92628	4.53165	29.1606
15.596	1.92628	4.53165	28.6691
15.697	1.92628	4.53165	28.1017
15.798	1.92628	4.53165	27.4388
15.899	1.92628	4.53165	26.6551
16	1.92628	4.53165	25.7191
6	1.93242	4.59877	47.0609
6.10101	1.93242	4.59877	47.3095
6.20202	1.93242	4.59877	47.4646
6.30303	1.93242	4.59877	47.5456
6.40404	1.93242	4.59877	47.5678
6.50505	1.93242	4.59877	47.5435
6.60606	1.93242	4.59877	47.4824
6.70707	1.93242	4.59877	47.392
6.80808	1.93242	4.59877	47.2784
6.90909	1.93242	4.59877	47.1465
7.0101	1.93242	4.59877	47
7.11111	1.93242	4.59877	46.842
7.21212	1.93242	4.59877	46.6749
7.31313	1.93242	4.59877	46.5005
7.41414	1.93242	4.59877	46.3204
7.51515	1.93242	4.59877	46.1357
7.61616	1.93242	4.59877	45.9475
7.71717	1.93242	4.59877	45.7564
7.81818	1.93242	4.59877	45.563
7.91919	1.93242	4.59877	45.3678
8.0202	1.93242	4.59877	45.1712
8.12121	1.93242	4.59877	44.9735
8.22222	1.93242	4.59877	44.7749
8.32323	1.93242	4.59877	44.5756
8.42424	1.93242	4.59877	44.3757
8.52525	1.93242	4.59877	44.1754
8.62626	1.93242	4.59877	43.9747
8.72727	1.93242	4.59877	43.7737
8.82828	1.93242	4.59877	43.5726
8.92929	1.93242	4.59877	43.3712
9.0303	1.93242	4.59877	43.1697
9.13131	1.93242	4.59877	42.9681
9.23232	1.93242	4.59877	42.7664
9.33333	1.93242	4.59877	42.5647
9.43434	1.93242	4.59877	42.3629
9.53535	1.93242	4.59877	42.161
9.63636	1.93242	4.59877	41.9591
9.73737	1.93242	4.59877	41.7572
9.83838	1.93242	4.59877	41.5553
9.93939	1.93242	4.59877	41.3533
10.0404	1.93242	4.59877	41.1514
10.1414	1.93242	4.59877	40.9494
10.2424	1.93242	4.59877	40.7474
10.3434	1.93242	4.59877	40.5454
10.4444	1.93242	4.59877	40.3434
10.5455	1.93242	4.59877	40.1414
10.6465	1.93242	4.59877	39.9394
10.7475	1.93242	4.59877	39.7374
10.8485	1.93242	4.59877	39.5353
10.9495	1.93242	4.59877	39.3333
11.0505	1.93242	4.59877	39.1313
11.1515	1.93242	4.59877	38.9293
11.2525	1.93242	4.59877	38.7272
11.3535	1.93242	4.59877	38.5252
11.4545	1.93242	4.59877	38.3232
11.5556	1.93242	4.59877	38.1211
11.6566	1.93242	4.59877	37.9191
11.7576	1.93242	4.59877	37.717
11.8586	1.93242	4.59877	37.5149
11.9596	1.93242	4.59877	37.3128
12.0606	1.93242	4.59877	37.1107
12.1616	1.93242	4.59877	36.9086
12.2626	1.93242	4.59877	36.7065
12.3636	1.93242	4.59877	36.5043
12.4646	1.93242	4.59877	36.302
12.5657	1.93242	4.59877	36.0997
12.6667	1.93242	4.59877	35.8974
12.7677	1.93242	4.59877	35.6949
12.8687	1.93242	4.59877	35.4924
12.9697	1.93242	4.59877	35.2897
13.0707	1.93242	4.59877	35.0868
13.1717	1.93242	4.59877	34.8837
13.2727	1.93242	4.59877	34.6803
13.3737	1.93242	4.59877	34.4765
13.4747	1.93242	4.59877	34.2723
13.5758	1.93242	4.59877	34.0675
13.6768	1.93242	4.59877	33.862
13.7778	1.93242	4.59877	33.6556
13.8788	1.93242	4.59877	33.448
13.9798	1.93242	4.59877	33.239
14.0808	1.93242	4.59877	33.0281
14.1818	1.93242	4.59877	32.815
14.2828	1.93242	4.59877	32.5989
14.3838	1.93242	4.59877	32.3791
14.4848	1.93242	4.59877	32.1547
14.5859	1.93242	4.59877	31.9244
14.6869	1.93242	4.59877	31.6866
14.7879	1.93242	4.59877	31.4396
14.8889	1.93242	4.59877	31.1807
14.9899	1.93242	4.59877	30.907
15.0909	1.93242	4.59877	30.6145
15.1919	1.93242	4.59877	30.2983
15.2929	1.93242	4.59877	29.9522
15.3939	1.93242	4.59877	29.5684
15.4949	1.93242	4.59877	29.1369
15.596	1.93242	4.59877	28.6454
15.697	1.93242	4.59877	28.0781
15.798	1.93242	4.59877	27.4151
15.899	1.93242	4.59877	26.6315
16	1.93242	4.59877	25.6955
6	1.93857	4.67619	47.041
6.10101	1.93857	4.67619	47.2896
6.20202	1.93857	4.67619	47.4447
6.30303	1.93857	4.67619	47.5257
6.40404	1.93857	4.67619	47.5479
6.50505	1.93857	4.67619	47.5237
6.60606	1.93857	4.67619	47.4625
6.70707	1.93857	4.67619	47.3721
6.80808	1.93857	4.67619	47.2585
6.90909	1.93857	4.67619	47.1266
7.0101	1.93857	4.67619	46.9801
7.11111	1.93857	4.67619	46.8221
7.21212	1.93857	4.67619	46.655
7.31313	1.93857	4.67619	46.4806
7.41414	1.93857	4.67619	46.3005
7.51515	1.93857	4.67619	46.1159
7.61616	1.93857	4.67619	45.9276
7.71717	1.93857	4.67619	45.7365
7.81818	1.93857	4.67619	45.5431
7.91919	1.93857	4.67619	45.348
8.0202	1.93857	4.67619	45.1514
8.12121	1.93857	4.67619	44.9536
8.22222	1.93857	4.67619	44.755
8.32323	1.93857	4.67619	44.5557
8.42424	1.93857	4.67619	44.3558
8.52525	1.93857	4.67619	44.1555
8.62626	1.93857	4.67619	43.9548
8.72727	1.93857	4.67619	43.7539
8.82828	1.93857	4.67619	43.5527
8.92929	1.93857	4.67619	43.3514
9.0303	1.93857	4.67619	43.1499
9.13131	1.93857	4.67619	42.9483
9.23232	1.93857	4.67619	42.7466
9.33333	1.93857	4.67619	42.5448
9.43434	1.93857	4.67619	42.343
9.53535	1.93857	4.67619	42.1412
9.63636	1.93857	4.67619	41.9393
9.73737	1.93857	4.67619	41.7374
9.83838	1.93857	4.67619	41.5354
9.93939	1.93857	4.67619	41.3335
10.0404	1.93857	4.67619	41.1315
10.1414	1.93857	4.67619	40.9295
10.2424	1.93857	4.67619	40.7275
10.3434	1.93857	4.67619	40.5255
10.4444	1.93857	4.67619	40.3235
10.5455	1.93857	4.67619	40.1215
10.6465	1.93857	4.67619	39.9195
10.7475	1.93857	4.67619	39.7175
10.8485	1.93857	4.67619	39.5155
10.9495	1.93857	4.67619	39.3135
11.0505	1.93857	4.67619	39.1114
11.1515	1.93857	4.67619	38.9094
11.2525	1.93857	4.67619	38.7074
11.3535	1.93857	4.67619	38.5053
11.4545	1.93857	4.67619	38.3033
11.5556	1.93857	4.67619	38.1013
11.6566	1.93857	4.67619	37.8992
11.7576	1.93857	4.67619	37.6971
11.8586	1.93857	4.67619	37.4951
11.9596	1.93857	4.67619	37.293
12.0606	1.93857	4.67619	37.0909
12.1616	1.93857	4.67619	36.8888
12.2626	1.93857	4.67619	36.6866
12.3636	1.93857	4.67619	36.4844
12.4646	1.93857	4.67619	36.2822
12.5657	1.93857	4.67619	36.0799
12.6667	1.93857	4.67619	35.8775
12.7677	1.93857	4.67619	35.6751
12.8687	1.93857	4.67619	35.4725
12.9697	1.93857	4.67619	35.2698
13.0707	1.93857	4.67619	35.0669
13.1717	1.93857	4.67619	34.8638
13.2727	1.93857	4.67619	34.6604
13.3737	1.93857	4.67619	34.4567
13.4747	1.93857	4.67619	34.2525
13.5758	1.93857	4.67619	34.0477
13.6768	1.93857	4.67619	33.8422
13.7778	1.93857	4.67619	33.6357
13.8788	1.93857	4.67619	33.4282
13.9798	1.93857	4.67619	33.2191
14.0808	1.93857	4.67619	33.0083
14.1818	1.93857	4.67619	32.7951
14.2828	1.93857	4.67619	32.579
14.3838	1.93857	4.67619	32.3592
14.4848	1.93857	4.67619	32.1348
14.5859	1.93857	4.67619	31.9045
14.6869	1.93857	4.67619	31.6668
14.7879	1.93857	4.67619	31.4197
14.8889	1.93857	4.67619	31.1609
14.9899	1.93857	4.67619	30.8871
15.0909	1.93857	4.67619	30.5946
15.1919	1.93857	4.67619	30.2784
15.2929	1.93857	4.67619	29.9323
15.3939	1.93857	4.67619	29.5485
15.4949	1.93857	4.67619	29.1171
15.596	1.93857	4.67619	28.6256
15.697	1.93857	4.67619	28.0582
15.798	1.93857	4.67619	27.3953
15.899	1.93857	4.67619	26.6116
16	1.93857	4.67619	25.6756
6	1.94471	4.74146	47.0163
6.10101	1.94471	4.74146	47.2649
6.20202	1.94471	4.74146	47.42
6.30303	1.94471	4.74146	47.501
6.40404	1.94471	4.74146	47.5232
6.50505	1.94471	4.74146	47.4989
6.60606	1.94471	4.74146	47.4378
6.70707	1.94471	4.74146	47.3474
6.80808	1.94471	4.74146	47.2338
6.90909	1.94471	4.74146	47.1019
7.0101	1.94471	4.74146	46.9554
7.11111	1.94471	4.74146	46.7974
7.21212	1.94471	4.74146	46.6303
7.31313	1.94471	4.74146	46.4559
7.41414	1.94471	4.74146	46.2758
7.51515	1.94471	4.74146	46.0912
7.61616	1.94471	4.74146	45.9029
7.71717	1.94471	4.74146	45.7118
7.81818	1.94471	4.74146	45.5184
7.91919	1.94471	4.74146	45.3232
8.0202	1.94471	4.74146	45.1266
8.12121	1.94471	4.74146	44.9289
8.22222	1.94471	4.74146	44.7303
8.32323	1.94471	4.74146	44.531
8.42424	1.94471	4.74146	44.3311
8.52525	1.94471	4.74146	44.1308
8.62626	1.94471	4.74146	43.9301
8.72727	1.94471	4.74146	43.7292
8.82828	1.94471	4.74146	43.528
8.92929	1.94471	4.74146	43.3266
9.0303	1.94471	4.74146	43.1251
9.13131	1.94471	4.74146	42.9235
9.23232	1.94471	4.74146	42.7219
9.33333	1.94471	4.74146	42.5201
9.43434	1.94471	4.74146	42.3183
9.53535	1.94471	4.74146	42.1164
9.63636	1.94471	4.74146	41.9145
9.73737	1.94471	4.74146	41.7126
9.83838	1.94471	4.74146	41.5107
9.93939	1.94471	4.74146	41.3087
10.0404	1.94471	4.74146	41.1068
10.1414	1.94471	4.74146	40.9048
10.2424	1.94471	4.74146	40.7028
10.3434	1.94471	4.74146	40.5008
10.4444	1.94471	4.74146	40.2988
10.5455	1.94471	4.74146	40.0968
10.6465	1.94471	4.74146	39.8948
10.7475	1.94471	4.74146	39.6928
10.8485	1.94471	4.74146	39.4907
10.9495	1.94471	4.74146	39.2887
11.0505	1.94471	4.74146	39.0867
11.1515	1.94471	4.74146	38.8847
11.2525	1.94471	4.74146	38.6826
11.3535	1.94471	4.74146	38.4806
11.4545	1.94471	4.74146	38.2786
11.5556	1.94471	4.74146	38.0765
11.6566	1.94471	4.74146	37.8745
11.7576	1.94471	4.74146	37.6724
11.8586	1.94471	4.74146	37.4703
11.9596	1.94471	4.74146	37.2683
12.0606	1.94471	4.74146	37.0662
12.1616	1.94471	4.74146	36.864
12.2626	1.94471	4.74146	36.6619
12.3636	1.94471	4.74146	36.4597
12.4646	1.94471	4.74146	36.2574
12.5657	1.94471	4.74146	36.0552
12.6667	1.94471	4.74146	35.8528
12.7677	1.94471	4.74146	35.6503
12.8687	1.94471	4.74146	35.4478
12.9697	1.94471	4.74146	35.2451
13.0707	1.94471	4.74146	35.0422
13.1717	1.94471	4.74146	34.8391
13.2727	1.94471	4.74146	34.6357
13.3737	1.94471	4.74146	34.4319
13.4747	1.94471	4.74146	34.2277
13.5758	1.94471	4.74146	34.0229
13.6768	1.94471	4.74146	33.8174
13.7778	1.94471	4.74146	33.611
13.8788	1.94471	4.74146	33.4034
13.9798	1.94471	4.74146	33.1944
14.0808	1.94471	4.74146	32.9836
14.1818	1.94471	4.74146	32.7704
14.2828	1.94471	4.74146	32.5543
14.3838	1.94471	4.74146	32.3345
14.4848	1.94471	4.74146	32.1101
14.5859	1.94471	4.74146	31.8798
14.6869	1.94471	4.74146	31.6421
14.7879	1.94471	4.74146	31.395
14.8889	1.94471	4.74146	31.1361
14.9899	1.94471	4.74146	30.8624
15.0909	1.94471	4.74146	30.5699
15.1919	1.94471	4.74146	30.2537
15.2929	1.94471	4.74146	29.9076
15.3939	1.94471	4.74146	29.5238
15.4949	1.94471	4.74146	29.0923
15.596	1.94471	4.74146	28.6008
15.697	1.94471	4.74146	28.0335
15.798	1.94471	4.74146	27.3705
15.899	1.94471	4.74146	26.5869
16	1.94471	4.74146	25.6509
6	1.95085	4.81722	46.9954
6.10101	1.95085	4.81722	47.244
6.20202	1.95085	4.81722	47.3991
6.30303	1.95085	4.81722	47.48
6.40404	1.95085	4.81722	47.5023
6.50505	1.95085	4.81722	47.478
6.60606	1.95085	4.81722	47.4168
6.70707	1.95085	4.81722	47.3264
6.80808	1.95085	4.81722	47.2129
6.90909	1.95085	4.81722	47.081
7.0101	1.95085	4.81722	46.9345
7.11111	1.95085	4.81722	46.7765
7.21212	1.95085	4.81722	46.6094
7.31313	1.95085	4.81722	46.435
7.41414	1.95085	4.81722	46.2549
7.51515	1.95085	4.81722	46.0702
7.61616	1.95085	4.81722	45.882
7.71717	1.95085	4.81722	45.6909
7.81818	1.95085	4.81722	45.4975
7.91919	1.95085	4.81722	45.3023
8.0202	1.95085	4.81722	45.1057
8.12121	1.95085	4.81722	44.908
8.22222	1.95085	4.81722	44.7094
8.32323	1.95085	4.81722	44.5101
8.42424	1.95085	4.81722	44.3102
8.52525	1.95085	4.81722	44.1099
8.62626	1.95085	4.81722	43.9092
8.72727	1.95085	4.81722	43.7082
8.82828	1.95085	4.81722	43.5071
8.92929	1.95085	4.81722	43.3057
9.0303	1.95085	4.81722	43.1042
9.13131	1.95085	4.81722	42.9026
9.23232	1.95085	4.81722	42.7009
9.33333	1.95085	4.81722	42.4992
9.43434	1.95085	4.81722	42.2974
9.53535	1.95085	4.81722	42.0955
9.63636	1.95085	4.81722	41.8936
9.73737	1.95085	4.81722	41.6917
9.83838	1.95085	4.81722	41.4898
9.93939	1.95085	4.81722	41.2878
10.0404	1.95085	4.81722	41.0858
10.1414	1.95085	4.81722	40.8839
10.2424	1.95085	4.81722	40.6819
10.3434	1.95085	4.81722	40.4799
10.4444	1.95085	4.81722	40.2779
10.5455	1.95085	4.81722	40.0759
10.6465	1.95085	4.81722	39.8738
10.7475	1.95085	4.81722	39.6718
10.8485	1.95085	4.81722	39.4698
10.9495	1.95085	4.81722	39.2678
11.0505	1.95085	4.81722	39.0658
11.1515	1.95085	4.81722	38.8637
11.2525	1.95085	4.81722	38.6617
11.3535	1.95085	4.81722	38.4597
11.4545	1.95085	4.81722	38.2576
11.5556	1.95085	4.81722	38.0556
11.6566	1.95085	4.81722	37.8535
11.7576	1.95085	4.81722	37.6515
11.8586	1.95085	4.81722	37.4494
11.9596	1.95085	4.81722	37.2473
12.0606	1.95085	4.81722	37.0452
12.1616	1.95085	4.81722	36.8431
12.2626	1.95085	4.81722	36.6409
12.3636	1.95085	4.81722	36.4388
12.4646	1.95085	4.81722	36.2365
12.5657	1.95085	4.81722	36.0342
12.6667	1.95085	4.81722	35.8319
12.7677	1.95085	4.81722	35.6294
12.8687	1.95085	4.81722	35.4269
12.9697	1.95085	4.81722	35.2242
13.0707	1.95085	4.81722	35.0213
13.1717	1.95085	4.81722	34.8182
13.2727	1.95085	4.81722	34.6148
13.3737	1.95085	4.81722	34.411
13.4747	1.95085	4.81722	34.2068
13.5758	1.95085	4.81722	34.002
13.6768	1.95085	4.81722	33.7965
13.7778	1.95085	4.81722	33.5901
13.8788	1.95085	4.81722	33.3825
13.9798	1.95085	4.81722	33.1735
14.0808	1.95085	4.81722	32.9626
14.1818	1.95085	4.81722	32.7494
14.2828	1.95085	4.81722	32.5334
14.3838	1.95085	4.81722	32.3136
14.4848	1.95085	4.81722	32.0891
14.5859	1.95085	4.81722	31.8588
14.6869	1.95085	4.81722	31.6211
14.7879	1.95085	4.81722	31.3741
14.8889	1.95085	4.81722	31.1152
14.9899	1.95085	4.81722	30.8415
15.0909	1.95085	4.81722	30.549
15.1919	1.95085	4.81722	30.2328
15.2929	1.95085	4.81722	29.8867
15.3939	1.95085	4.81722	29.5028
15.4949	1.95085	4.81722	29.0714
15.596	1.95085	4.81722	28.5799
15.697	1.95085	4.81722	28.0126
15.798	1.95085	4.81722	27.3496
15.899	1.95085	4.81722	26.5659
16	1.95085	4.81722	25.63
6	1.957	4.89226	46.9739
6.10101	1.957	4.89226	47.2225
6.20202	1.957	4.89226	47.3776
6.30303	1.957	4.89226	47.4586
6.40404	1.957	4.89226	47.4808
6.50505	1.957	4.89226	47.4565
6.60606	1.957	4.89226	47.3954
6.70707	1.957	4.89226	47.305
6.80808	1.957	4.89226	47.1914
6.90909	1.957	4.89226	47.0595
7.0101	1.957	4.89226	46.913
7.11111	1.957	4.89226	46.755
7.21212	1.957	4.89226	46.5879
7.31313	1.957	4.89226	46.4135
7.41414	1.957	4.89226	46.2334
7.51515	1.957	4.89226	46.0488
7.61616	1.957	4.89226	45.8605
7.71717	1.957	4.89226	45.6694
7.81818	1.957	4.89226	45.476
7.91919	1.957	4.89226	45.2808
8.0202	1.957	4.89226	45.0842
8.12121	1.957	4.89226	44.8865
8.22222	1.957	4.89226	44.6879
8.32323	1.957	4.89226	44.4886
8.42424	1.957	4.89226	44.2887
8.52525	1.957	4.89226	44.0884
8.62626	1.957	4.89226	43.8877
8.72727	1.957	4.89226	43.6868
8.82828	1.957	4.89226	43.4856
8.92929	1.957	4.89226	43.2842
9.0303	1.957	4.89226	43.0827
9.13131	1.957	4.89226	42.8811
9.23232	1.957	4.89226	42.6795
9.33333	1.957	4.89226	42.4777
9.43434	1.957	4.89226	42.2759
9.53535	1.957	4.89226	42.074
9.63636	1.957	4.89226	41.8721
9.73737	1.957	4.89226	41.6702
9.83838	1.957	4.89226	41.4683
9.93939	1.957	4.89226	41.2663
10.0404	1.957	4.89226	41.0644
10.1414	1.957	4.89226	40.8624
10.2424	1.957	4.89226	40.6604
10.3434	1.957	4.89226	40.4584
10.4444	1.957	4.89226	40.2564
10.5455	1.957	4.89226	40.0544
10.6465	1.957	4.89226	39.8524
10.7475	1.957	4.89226	39.6504
10.8485	1.957	4.89226	39.4483
10.9495	1.957	4.89226	39.2463
11.0505	1.957	4.89226	39.0443
11.1515	1.957	4.89226	38.8423
11.2525	1.957	4.89226	38.6402
11.3535	1.957	4.89226	38.4382
11.4545	1.957	4.89226	38.2362
11.5556	1.957	4.89226	38.0341
11.6566	1.957	4.89226	37.8321
11.7576	1.957	4.89226	37.63
11.8586	1.957	4.89226	37.4279
11.9596	1.957	4.89226	37.2259
12.0606	1.957	4.89226	37.0238
12.1616	1.957	4.89226	36.8216
12.2626	1.957	4.89226	36.6195
12.3636	1.957	4.89226	36.4173
12.4646	1.957	4.89226	36.215
12.5657	1.957	4.89226	36.0128
12.6667	1.957	4.89226	35.8104
12.7677	1.957	4.89226	35.6079
12.8687	1.957	4.89226	35.4054
12.9697	1.957	4.89226	35.2027
13.0707	1.957	4.89226	34.9998
13.1717	1.957	4.89226	34.7967
13.2727	1.957	4.89226	34.5933
13.3737	1.957	4.89226	34.3895
13.4747	1.957	4.89226	34.1853
13.5758	1.957	4.89226	33.9805
13.6768	1.957	4.89226	33.775
13.7778	1.957	4.89226	33.5686
13.8788	1.957	4.89226	33.361
13.9798	1.957	4.89226	33.152
14.0808	1.957	4.89226	32.9412
14.1818	1.957	4.89226	32.728
14.2828	1.957	4.89226	32.5119
14.3838	1.957	4.89226	32.2921
14.4848	1.957	4.89226	32.0677
14.5859	1.957	4.89226	31.8374
14.6869	1.957	4.89226	31.5996
14.7879	1.957	4.89226	31.3526
14.8889	1.957	4.89226	31.0937
14.9899	1.957	4.89226	30.82
15.0909	1.957	4.89226	30.5275
15.1919	1.957	4.89226	30.2113
15.2929	1.957	4.89226	29.8652
15.3939	1.957	4.89226	29.4814
15.4949	1.957	4.89226	29.0499
15.596	1.957	4.89226	28.5584
15.697	1.957	4.89226	27.9911
15.798	1.957	4.89226	27.3281
15.899	1.957	4.89226	26.5445
16	1.957	4.89226	25.6085
6	1.96314	4.96664	46.9519
6.10101	1.96314	4.96664	47.2005
6.20202	1.96314	4.96664	47.3556
6.30303	1.96314	4.96664	47.4365
6.40404	1.96314	4.96664	47.4588
6.50505	1.96314	4.96664	47.4345
6.60606	1.96314	4.96664	47.3733
6.70707	1.96314	4.96664	47.2829
6.80808	1.96314	4.96664	47.1694
6.90909	1.96314	4.96664	47.0374
7.0101	1.96314	4.96664	46.891
7.11111	1.96314	4.96664	46.733
7.21212	1.96314	4.96664	46.5659
7.31313	1.96314	4.96664	46.3915
7.41414	1.96314	4.96664	46.2114
7.51515	1.96314	4.96664	46.0267
7.61616	1.96314	4.96664	45.8385
7.71717	1.96314	4.96664	45.6473
7.81818	1.96314	4.96664	45.454
7.91919	1.96314	4.96664	45.2588
8.0202	1.96314	4.96664	45.0622
8.12121	1.96314	4.96664	44.8645
8.22222	1.96314	4.96664	44.6659
8.32323	1.96314	4.96664	44.4666
8.42424	1.96314	4.96664	44.2667
8.52525	1.96314	4.96664	44.0664
8.62626	1.96314	4.96664	43.8657
8.72727	1.96314	4.96664	43.6647
8.82828	1.96314	4.96664	43.4635
8.92929	1.96314	4.96664	43.2622
9.0303	1.96314	4.96664	43.0607
9.13131	1.96314	4.96664	42.8591
9.23232	1.96314	4.96664	42.6574
9.33333	1.96314	4.96664	42.4557
9.43434	1.96314	4.96664	42.2539
9.53535	1.96314	4.96664	42.052
9.63636	1.96314	4.96664	41.8501
9.73737	1.96314	4.96664	41.6482
9.83838	1.96314	4.96664	41.4463
9.93939	1.96314	4.96664	41.2443
10.0404	1.96314	4.96664	41.0423
10.1414	1.96314	4.96664	40.8404
10.2424	1.96314	4.96664	40.6384
10.3434	1.96314	4.96664	40.4364
10.4444	1.96314	4.96664	40.2344
10.5455	1.96314	4.96664	40.0324
10.6465	1.96314	4.96664	39.8303
10.7475	1.96314	4.96664	39.6283
10.8485	1.96314	4.96664	39.4263
10.9495	1.96314	4.96664	39.2243
11.0505	1.96314	4.96664	39.0223
11.1515	1.96314	4.96664	38.8202
11.2525	1.96314	4.96664	38.6182
11.3535	1.96314	4.96664	38.4162
11.4545	1.96314	4.96664	38.2141
11.5556	1.96314	4.96664	38.0121
11.6566	1.96314	4.96664	37.81
11.7576	1.96314	4.96664	37.608
11.8586	1.96314	4.96664	37.4059
11.9596	1.96314	4.96664	37.2038
12.0606	1.96314	4.96664	37.0017
12.1616	1.96314	4.96664	36.7996
12.2626	1.96314	4.96664	36.5974
12.3636	1.96314	4.96664	36.3952
12.4646	1.96314	4.96664	36.193
12.5657	1.96314	4.96664	35.9907
12.6667	1.96314	4.96664	35.7884
12.7677	1.96314	4.96664	35.5859
12.8687	1.96314	4.96664	35.3834
12.9697	1.96314	4.96664	35.1806
13.0707	1.96314	4.96664	34.9778
13.1717	1.96314	4.96664	34.7747
13.2727	1.96314	4.96664	34.5713
13.3737	1.96314	4.96664	34.3675
13.4747	1.96314	4.96664	34.1633
13.5758	1.96314	4.96664	33.9585
13.6768	1.96314	4.96664	33.753
13.7778	1.96314	4.96664	33.5466
13.8788	1.96314	4.96664	33.339
13.9798	1.96314	4.96664	33.13
14.0808	1.96314	4.96664	32.9191
14.1818	1.96314	4.96664	32.7059
14.2828	1.96314	4.96664	32.4898
14.3838	1.96314	4.96664	32.2701
14.4848	1.96314	4.96664	32.0456
14.5859	1.96314	4.96664	31.8153
14.6869	1.96314	4.96664	31.5776
14.7879	1.96314	4.96664	31.3306
14.8889	1.96314	4.96664	31.0717
14.9899	1.96314	4.96664	30.798
15.0909	1.96314	4.96664	30.5055
15.1919	1.96314	4.96664	30.1893
15.2929	1.96314	4.96664	29.8432
15.3939	1.96314	4.96664	29.4593
15.4949	1.96314	4.96664	29.0279
15.596	1.96314	4.96664	28.5364
15.697	1.96314	4.96664	27.9691
15.798	1.96314	4.96664	27.3061
15.899	1.96314	4.96664	26.5224
16	1.96314	4.96664	25.5864
6	1.96928	5.04041	46.9293
6.10101	1.96928	5.04041	47.1779
6.20202	1.96928	5.04041	47.3329
6.30303	1.96928	5.04041	47.4139
6.40404	1.96928	5.04041	47.4362
6.50505	1.96928	5.04041	47.4119
6.60606	1.96928	5.04041	47.3507
6.70707	1.96928	5.04041	47.2603
6.80808	1.96928	5.04041	47.1468
6.90909	1.96928	5.04041	47.0148
7.0101	1.96928	5.04041	46.8684
7.11111	1.96928	5.04041	46.7104
7.21212	1.96928	5.04041	46.5432
7.31313	1.96928	5.04041	46.3689
7.41414	1.96928	5.04041	46.1888
7.51515	1.96928	5.04041	46.0041
7.61616	1.96928	5.04041	45.8159
7.71717	1.96928	5.04041	45.6247
7.81818	1.96928	5.04041	45.4314
7.91919	1.96928	5.04041	45.2362
8.0202	1.96928	5.04041	45.0396
8.12121	1.96928	5.04041	44.8419
8.22222	1.96928	5.04041	44.6433
8.32323	1.96928	5.04041	44.4439
8.42424	1.96928	5.04041	44.2441
8.52525	1.96928	5.04041	44.0437
8.62626	1.96928	5.04041	43.8431
8.72727	1.96928	5.04041	43.6421
8.82828	1.96928	5.04041	43.4409
8.92929	1.96928	5.04041	43.2396
9.0303	1.96928	5.04041	43.0381
9.13131	1.96928	5.04041	42.8365
9.23232	1.96928	5.04041	42.6348
9.33333	1.96928	5.04041	42.4331
9.43434	1.96928	5.04041	42.2312
9.53535	1.96928	5.04041	42.0294
9.63636	1.96928	5.04041	41.8275
9.73737	1.96928	5.04041	41.6256
9.83838	1.96928	5.04041	41.4236
9.93939	1.96928	5.04041	41.2217
10.0404	1.96928	5.04041	41.0197
10.1414	1.96928	5.04041	40.8177
10.2424	1.96928	5.04041	40.6157
10.3434	1.96928	5.04041	40.4138
10.4444	1.96928	5.04041	40.2118
10.5455	1.96928	5.04041	40.0097
10.6465	1.96928	5.04041	39.8077
10.7475	1.96928	5.04041	39.6057
10.8485	1.96928	5.04041	39.4037
10.9495	1.96928	5.04041	39.2017
11.0505	1.96928	5.04041	38.9997
11.1515	1.96928	5.04041	38.7976
11.2525	1.96928	5.04041	38.5956
11.3535	1.96928	5.04041	38.3936
11.4545	1.96928	5.04041	38.1915
11.5556	1.96928	5.04041	37.9895
11.6566	1.96928	5.04041	37.7874
11.7576	1.96928	5.04041	37.5854
11.8586	1.96928	5.04041	37.3833
11.9596	1.96928	5.04041	37.1812
12.0606	1.96928	5.04041	36.9791
12.1616	1.96928	5.04041	36.777
12.2626	1.96928	5.04041	36.5748
12.3636	1.96928	5.04041	36.3726
12.4646	1.96928	5.04041	36.1704
12.5657	1.96928	5.04041	35.9681
12.6667	1.96928	5.04041	35.7658
12.7677	1.96928	5.04041	35.5633
12.8687	1.96928	5.04041	35.3607
12.9697	1.96928	5.04041	35.158
13.0707	1.96928	5.04041	34.9552
13.1717	1.96928	5.04041	34.752
13.2727	1.96928	5.04041	34.5486
13.3737	1.96928	5.04041	34.3449
13.4747	1.96928	5.04041	34.1407
13.5758	1.96928	5.04041	33.9359
13.6768	1.96928	5.04041	33.7304
13.7778	1.96928	5.04041	33.524
13.8788	1.96928	5.04041	33.3164
13.9798	1.96928	5.04041	33.1074
14.0808	1.96928	5.04041	32.8965
14.1818	1.96928	5.04041	32.6833
14.2828	1.96928	5.04041	32.4672
14.3838	1.96928	5.04041	32.2475
14.4848	1.96928	5.04041	32.023
14.5859	1.96928	5.04041	31.7927
14.6869	1.96928	5.04041	31.555
14.7879	1.96928	5.04041	31.308
14.8889	1.96928	5.04041	31.0491
14.9899	1.96928	5.04041	30.7754
15.0909	1.96928	5.04041	30.4829
15.1919	1.96928	5.04041	30.1667
15.2929	1.96928	5.04041	29.8206
15.3939	1.96928	5.04041	29.4367
15.4949	1.96928	5.04041	29.0053
15.596	1.96928	5.04041	28.5138
15.697	1.96928	5.04041	27.9465
15.798	1.96928	5.04041	27.2835
15.899	1.96928	5.04041	26.4998
16	1.96928	5.04041	25.5638
6	1.97543	5.11361	46.906
6.10101	1.97543	5.11361	47.1546
6.20202	1.97543	5.11361	47.3097
6.30303	1.97543	5.11361	47.3907
6.40404	1.97543	5.11361	47.413
6.50505	1.97543	5.11361	47.3887
6.60606	1.97543	5.11361	47.3275
6.70707	1.97543	5.11361	47.2371
6.80808	1.97543	5.11361	47.1235
6.90909	1.97543	5.11361	46.9916
7.0101	1.97543	5.11361	46.8452
7.11111	1.97543	5.11361	46.6872
7.21212	1.97543	5.11361	46.52
7.31313	1.97543	5.11361	46.3457
7.41414	1.97543	5.11361	46.1655
7.51515	1.97543	5.11361	45.9809
7.61616	1.97543	5.11361	45.7926
7.71717	1.97543	5.11361	45.6015
7.81818	1.97543	5.11361	45.4081
7.91919	1.97543	5.11361	45.213
8.0202	1.97543	5.11361	45.0164
8.12121	1.97543	5.11361	44.8187
8.22222	1.97543	5.11361	44.62
8.32323	1.97543	5.11361	44.4207
8.42424	1.97543	5.11361	44.2208
8.52525	1.97543	5.11361	44.0205
8.62626	1.97543	5.11361	43.8198
8.72727	1.97543	5.11361	43.6189
8.82828	1.97543	5.11361	43.4177
8.92929	1.97543	5.11361	43.2164
9.0303	1.97543	5.11361	43.0149
9.13131	1.97543	5.11361	42.8133
9.23232	1.97543	5.11361	42.6116
9.33333	1.97543	5.11361	42.4098
9.43434	1.97543	5.11361	42.208
9.53535	1.97543	5.11361	42.0062
9.63636	1.97543	5.11361	41.8043
9.73737	1.97543	5.11361	41.6024
9.83838	1.97543	5.11361	41.4004
9.93939	1.97543	5.11361	41.1985
10.0404	1.97543	5.11361	40.9965
10.1414	1.97543	5.11361	40.7945
10.2424	1.97543	5.11361	40.5925
10.3434	1.97543	5.11361	40.3905
10.4444	1.97543	5.11361	40.1885
10.5455	1.97543	5.11361	39.9865
10.6465	1.97543	5.11361	39.7845
10.7475	1.97543	5.11361	39.5825
10.8485	1.97543	5.11361	39.3805
10.9495	1.97543	5.11361	39.1785
11.0505	1.97543	5.11361	38.9764
11.1515	1.97543	5.11361	38.7744
11.2525	1.97543	5.11361	38.5724
11.3535	1.97543	5.11361	38.3703
11.4545	1.97543	5.11361	38.1683
11.5556	1.97543	5.11361	37.9663
11.6566	1.97543	5.11361	37.7642
11.7576	1.97543	5.11361	37.5622
11.8586	1.97543	5.11361	37.3601
11.9596	1.97543	5.11361	37.158
12.0606	1.97543	5.11361	36.9559
12.1616	1.97543	5.11361	36.7538
12.2626	1.97543	5.11361	36.5516
12.3636	1.97543	5.11361	36.3494
12.4646	1.97543	5.11361	36.1472
12.5657	1.97543	5.11361	35.9449
12.6667	1.97543	5.11361	35.7425
12.7677	1.97543	5.11361	35.5401
12.8687	1.97543	5.11361	35.3375
12.9697	1.97543	5.11361	35.1348
13.0707	1.97543	5.11361	34.9319
13.1717	1.97543	5.11361	34.7288
13.2727	1.97543	5.11361	34.5254
13.3737	1.97543	5.11361	34.3217
13.4747	1.97543	5.11361	34.1175
13.5758	1.97543	5.11361	33.9127
13.6768	1.97543	5.11361	33.7072
13.7778	1.97543	5.11361	33.5008
13.8788	1.97543	5.11361	33.2932
13.9798	1.97543	5.11361	33.0842
14.0808	1.97543	5.11361	32.8733
14.1818	1.97543	5.11361	32.6601
14.2828	1.97543	5.11361	32.444
14.3838	1.97543	5.11361	32.2242
14.4848	1.97543	5.11361	31.9998
14.5859	1.97543	5.11361	31.7695
14.6869	1.97543	5.11361	31.5318
14.7879	1.97543	5.11361	31.2847
14.8889	1.97543	5.11361	31.0259
14.9899	1.97543	5.11361	30.7522
15.0909	1.97543	5.11361	30.4596
15.1919	1.97543	5.11361	30.1434
15.2929	1.97543	5.11361	29.7973
15.3939	1.97543	5.11361	29.4135
15.4949	1.97543	5.11361	28.9821
15.596	1.97543	5.11361	28.4906
15.697	1.97543	5.11361	27.9233
15.798	1.97543	5.11361	27.2603
15.899	1.97543	5.11361	26.4766
16	1.97543	5.11361	25.5406
6	1.98157	5.19788	46.8868
6.10101	1.98157	5.19788	47.1354
6.20202	1.98157	5.19788	47.2905
6.30303	1.98157	5.19788	47.3715
6.40404	1.98157	5.19788	47.3937
6.50505	1.98157	5.19788	47.3694
6.60606	1.98157	5.19788	47.3083
6.70707	1.98157	5.19788	47.2179
6.80808	1.98157	5.19788	47.1043
6.90909	1.98157	5.19788	46.9724
7.0101	1.98157	5.19788	46.8259
7.11111	1.98157	5.19788	46.6679
7.21212	1.98157	5.19788	46.5008
7.31313	1.98157	5.19788	46.3264
7.41414	1.98157	5.19788	46.1463
7.51515	1.98157	5.19788	45.9617
7.61616	1.98157	5.19788	45.7734
7.71717	1.98157	5.19788	45.5823
7.81818	1.98157	5.19788	45.3889
7.91919	1.98157	5.19788	45.1937
8.0202	1.98157	5.19788	44.9971
8.12121	1.98157	5.19788	44.7994
8.22222	1.98157	5.19788	44.6008
8.32323	1.98157	5.19788	44.4015
8.42424	1.98157	5.19788	44.2016
8.52525	1.98157	5.19788	44.0013
8.62626	1.98157	5.19788	43.8006
8.72727	1.98157	5.19788	43.5997
8.82828	1.98157	5.19788	43.3985
8.92929	1.98157	5.19788	43.1971
9.0303	1.98157	5.19788	42.9956
9.13131	1.98157	5.19788	42.794
9.23232	1.98157	5.19788	42.5924
9.33333	1.98157	5.19788	42.3906
9.43434	1.98157	5.19788	42.1888
9.53535	1.98157	5.19788	41.9869
9.63636	1.98157	5.19788	41.785
9.73737	1.98157	5.19788	41.5831
9.83838	1.98157	5.19788	41.3812
9.93939	1.98157	5.19788	41.1792
10.0404	1.98157	5.19788	40.9773
10.1414	1.98157	5.19788	40.7753
10.2424	1.98157	5.19788	40.5733
10.3434	1.98157	5.19788	40.3713
10.4444	1.98157	5.19788	40.1693
10.5455	1.98157	5.19788	39.9673
10.6465	1.98157	5.19788	39.7653
10.7475	1.98157	5.19788	39.5633
10.8485	1.98157	5.19788	39.3613
10.9495	1.98157	5.19788	39.1592
11.0505	1.98157	5.19788	38.9572
11.1515	1.98157	5.19788	38.7552
11.2525	1.98157	5.19788	38.5532
11.3535	1.98157	5.19788	38.3511
11.4545	1.98157	5.19788	38.1491
11.5556	1.98157	5.19788	37.947
11.6566	1.98157	5.19788	37.745
11.7576	1.98157	5.19788	37.5429
11.8586	1.98157	5.19788	37.3409
11.9596	1.98157	5.19788	37.1388
12.0606	1.98157	5.19788	36.9367
12.1616	1.98157	5.19788	36.7345
12.2626	1.98157	5.19788	36.5324
12.3636	1.98157	5.19788	36.3302
12.4646	1.98157	5.19788	36.128
12.5657	1.98157	5.19788	35.9257
12.6667	1.98157	5.19788	35.7233
12.7677	1.98157	5.19788	35.5209
12.8687	1.98157	5.19788	35.3183
12.9697	1.98157	5.19788	35.1156
13.0707	1.98157	5.19788	34.9127
13.1717	1.98157	5.19788	34.7096
13.2727	1.98157	5.19788	34.5062
13.3737	1.98157	5.19788	34.3024
13.4747	1.98157	5.19788	34.0982
13.5758	1.98157	5.19788	33.8934
13.6768	1.98157	5.19788	33.6879
13.7778	1.98157	5.19788	33.4815
13.8788	1.98157	5.19788	33.2739
13.9798	1.98157	5.19788	33.0649
14.0808	1.98157	5.19788	32.8541
14.1818	1.98157	5.19788	32.6409
14.2828	1.98157	5.19788	32.4248
14.3838	1.98157	5.19788	32.205
14.4848	1.98157	5.19788	31.9806
14.5859	1.98157	5.19788	31.7503
14.6869	1.98157	5.19788	31.5126
14.7879	1.98157	5.19788	31.2655
14.8889	1.98157	5.19788	31.0067
14.9899	1.98157	5.19788	30.7329
15.0909	1.98157	5.19788	30.4404
15.1919	1.98157	5.19788	30.1242
15.2929	1.98157	5.19788	29.7781
15.3939	1.98157	5.19788	29.3943
15.4949	1.98157	5.19788	28.9628
15.596	1.98157	5.19788	28.4713
15.697	1.98157	5.19788	27.904
15.798	1.98157	5.19788	27.2411
15.899	1.98157	5.19788	26.4574
16	1.98157	5.19788	25.5214
6	1.98771	5.27011	46.8623
6.10101	1.98771	5.27011	47.1109
6.20202	1.98771	5.27011	47.266
6.30303	1.98771	5.27011	47.347
6.40404	1.98771	5.27011	47.3693
6.50505	1.98771	5.27011	47.345
6.60606	1.98771	5.27011	47.2838
6.70707	1.98771	5.27011	47.1934
6.80808	1.98771	5.27011	47.0798
6.90909	1.98771	5.27011	46.9479
7.0101	1.98771	5.27011	46.8015
7.11111	1.98771	5.27011	46.6435
7.21212	1.98771	5.27011	46.4763
7.31313	1.98771	5.27011	46.302
7.41414	1.98771	5.27011	46.1219
7.51515	1.98771	5.27011	45.9372
7.61616	1.98771	5.27011	45.7489
7.71717	1.98771	5.27011	45.5578
7.81818	1.98771	5.27011	45.3645
7.91919	1.98771	5.27011	45.1693
8.0202	1.98771	5.27011	44.9727
8.12121	1.98771	5.27011	44.775
8.22222	1.98771	5.27011	44.5764
8.32323	1.98771	5.27011	44.377
8.42424	1.98771	5.27011	44.1772
8.52525	1.98771	5.27011	43.9768
8.62626	1.98771	5.27011	43.7762
8.72727	1.98771	5.27011	43.5752
8.82828	1.98771	5.27011	43.374
8.92929	1.98771	5.27011	43.1727
9.0303	1.98771	5.27011	42.9712
9.13131	1.98771	5.27011	42.7696
9.23232	1.98771	5.27011	42.5679
9.33333	1.98771	5.27011	42.3661
9.43434	1.98771	5.27011	42.1643
9.53535	1.98771	5.27011	41.9625
9.63636	1.98771	5.27011	41.7606
9.73737	1.98771	5.27011	41.5587
9.83838	1.98771	5.27011	41.3567
9.93939	1.98771	5.27011	41.1548
10.0404	1.98771	5.27011	40.9528
10.1414	1.98771	5.27011	40.7508
10.2424	1.98771	5.27011	40.5488
10.3434	1.98771	5.27011	40.3468
10.4444	1.98771	5.27011	40.1448
10.5455	1.98771	5.27011	39.9428
10.6465	1.98771	5.27011	39.7408
10.7475	1.98771	5.27011	39.5388
10.8485	1.98771	5.27011	39.3368
10.9495	1.98771	5.27011	39.1348
11.0505	1.98771	5.27011	38.9328
11.1515	1.98771	5.27011	38.7307
11.2525	1.98771	5.27011	38.5287
11.3535	1.98771	5.27011	38.3267
11.4545	1.98771	5.27011	38.1246
11.5556	1.98771	5.27011	37.9226
11.6566	1.98771	5.27011	37.7205
11.7576	1.98771	5.27011	37.5185
11.8586	1.98771	5.27011	37.3164
11.9596	1.98771	5.27011	37.1143
12.0606	1.98771	5.27011	36.9122
12.1616	1.98771	5.27011	36.7101
12.2626	1.98771	5.27011	36.5079
12.3636	1.98771	5.27011	36.3057
12.4646	1.98771	5.27011	36.1035
12.5657	1.98771	5.27011	35.9012
12.6667	1.98771	5.27011	35.6988
12.7677	1.98771	5.27011	35.4964
12.8687	1.98771	5.27011	35.2938
12.9697	1.98771	5.27011	35.0911
13.0707	1.98771	5.27011	34.8882
13.1717	1.98771	5.27011	34.6851
13.2727	1.98771	5.27011	34.4817
13.3737	1.98771	5.27011	34.278
13.4747	1.98771	5.27011	34.0738
13.5758	1.98771	5.27011	33.869
13.6768	1.98771	5.27011	33.6635
13.7778	1.98771	5.27011	33.4571
13.8788	1.98771	5.27011	33.2495
13.9798	1.98771	5.27011	33.0405
14.0808	1.98771	5.27011	32.8296
14.1818	1.98771	5.27011	32.6164
14.2828	1.98771	5.27011	32.4003
14.3838	1.98771	5.27011	32.1805
14.4848	1.98771	5.27011	31.9561
14.5859	1.98771	5.27011	31.7258
14.6869	1.98771	5.27011	31.4881
14.7879	1.98771	5.27011	31.241
14.8889	1.98771	5.27011	30.9822
14.9899	1.98771	5.27011	30.7085
15.0909	1.98771	5.27011	30.416
15.1919	1.98771	5.27011	30.0998
15.2929	1.98771	5.27011	29.7537
15.3939	1.98771	5.27011	29.3698
15.4949	1.98771	5.27011	28.9384
15.596	1.98771	5.27011	28.4469
15.697	1.98771	5.27011	27.8796
15.798	1.98771	5.27011	27.2166
15.899	1.98771	5.27011	26.4329
16	1.98771	5.27011	25.4969
6	1.99386	5.34191	46.8372
6.10101	1.99386	5.34191	47.0858
6.20202	1.99386	5.34191	47.2409
6.30303	1.99386	5.34191	47.3218
6.40404	1.99386	5.34191	47.3441
6.50505	1.99386	5.34191	47.3198
6.60606	1.99386	5.34191	47.2586
6.70707	1.99386	5.34191	47.1682
6.80808	1.99386	5.34191	47.0547
6.90909	1.99386	5.34191	46.9228
7.0101	1.99386	5.34191	46.7763
7.11111	1.99386	5.34191	46.6183
7.21212	1.99386	5.34191	46.4512
7.31313	1.99386	5.34191	46.2768
7.41414	1.99386	5.34191	46.0967
7.51515	1.99386	5.34191	45.912
7.61616	1.99386	5.34191	45.7238
7.71717	1.99386	5.34191	45.5327
7.81818	1.99386	5.34191	45.3393
7.91919	1.99386	5.34191	45.1441
8.0202	1.99386	5.34191	44.9475
8.12121	1.99386	5.34191	44.7498
8.22222	1.99386	5.34191	44.5512
8.32323	1.99386	5.34191	44.3519
8.42424	1.99386	5.34191	44.152
8.52525	1.99386	5.34191	43.9517
8.62626	1.99386	5.34191	43.751
8.72727	1.99386	5.34191	43.55
8.82828	1.99386	5.34191	43.3489
8.92929	1.99386	5.34191	43.1475
9.0303	1.99386	5.34191	42.946
9.13131	1.99386	5.34191	42.7444
9.23232	1.99386	5.34191	42.5427
9.33333	1.99386	5.34191	42.341
9.43434	1.99386	5.34191	42.1392
9.53535	1.99386	5.34191	41.9373
9.63636	1.99386	5.34191	41.7354
9.73737	1.99386	5.34191	41.5335
9.83838	1.99386	5.34191	41.3316
9.93939	1.99386	5.34191	41.1296
10.0404	1.99386	5.34191	40.9276
10.1414	1.99386	5.34191	40.7257
10.2424	1.99386	5.34191	40.5237
10.3434	1.99386	5.34191	40.3217
10.4444	1.99386	5.34191	40.1197
10.5455	1.99386	5.34191	39.9177
10.6465	1.99386	5.34191	39.7157
10.7475	1.99386	5.34191	39.5136
10.8485	1.99386	5.34191	39.3116
10.9495	1.99386	5.34191	39.1096
11.0505	1.99386	5.34191	38.9076
11.1515	1.99386	5.34191	38.7056
11.2525	1.99386	5.34191	38.5035
11.3535	1.99386	5.34191	38.3015
11.4545	1.99386	5.34191	38.0995
11.5556	1.99386	5.34191	37.8974
11.6566	1.99386	5.34191	37.6954
11.7576	1.99386	5.34191	37.4933
11.8586	1.99386	5.34191	37.2912
11.9596	1.99386	5.34191	37.0891
12.0606	1.99386	5.34191	36.887
12.1616	1.99386	5.34191	36.6849
12.2626	1.99386	5.34191	36.4828
12.3636	1.99386	5.34191	36.2806
12.4646	1.99386	5.34191	36.0783
12.5657	1.99386	5.34191	35.876
12.6667	1.99386	5.34191	35.6737
12.7677	1.99386	5.34191	35.4712
12.8687	1.99386	5.34191	35.2687
12.9697	1.99386	5.34191	35.066
13.0707	1.99386	5.34191	34.8631
13.1717	1.99386	5.34191	34.66
13.2727	1.99386	5.34191	34.4566
13.3737	1.99386	5.34191	34.2528
13.4747	1.99386	5.34191	34.0486
13.5758	1.99386	5.34191	33.8438
13.6768	1.99386	5.34191	33.6383
13.7778	1.99386	5.34191	33.4319
13.8788	1.99386	5.34191	33.2243
13.9798	1.99386	5.34191	33.0153
14.0808	1.99386	5.34191	32.8044
14.1818	1.99386	5.34191	32.5913
14.2828	1.99386	5.34191	32.3752
14.3838	1.99386	5.34191	32.1554
14.4848	1.99386	5.34191	31.9309
14.5859	1.99386	5.34191	31.7006
14.6869	1.99386	5.34191	31.4629
14.7879	1.99386	5.34191	31.2159
14.8889	1.99386	5.34191	30.957
14.9899	1.99386	5.34191	30.6833
15.0909	1.99386	5.34191	30.3908
15.1919	1.99386	5.34191	30.0746
15.2929	1.99386	5.34191	29.7285
15.3939	1.99386	5.34191	29.3447
15.4949	1.99386	5.34191	28.9132
15.596	1.99386	5.34191	28.4217
15.697	1.99386	5.34191	27.8544
15.798	1.99386	5.34191	27.1914
15.899	1.99386	5.34191	26.4077
16	1.99386	5.34191	25.4718
6	2	5.42504	-inf
6.10101	2	5.42504	-inf
6.20202	2	5.42504	-inf
6.30303	2	5.42504	-inf
6.40404	2	5.42504	-inf
6.50505	2	5.42504	-inf
6.60606	2	5.42504	-inf
6.70707	2	5.42504	-inf
6.80808	2	5.42504	-inf
6.90909	2	5.42504	-inf
7.0101	2	5.42504	-inf
7.11111	2	5.42504	-inf
7.21212	2	5.42504	-inf
7.31313	2	5.42504	-inf
7.41414	2	5.42504	-inf
7.51515	2	5.42504	-inf
7.61616	2	5.42504	-inf
7.71717	2	5.42504	-inf
7.81818	2	5.42504	-inf
7.91919	2	5.42504	-inf
8.0202	2	5.42504	-inf
8.12121	2	5.42504	-inf
8.22222	2	5.42504	-inf
8.32323	2	5.42504	-inf
8.42424	2	5.42504	-inf
8.52525	2	5.42504	-inf
8.62626	2	5.42504	-inf
8.72727	2	5.42504	-inf
8.82828	2	5.42504	-inf
8.92929	2	5.42504	-inf
9.0303	2	5.42504	-inf
9.13131	2	5.42504	-inf
9.23232	2	5.42504	-inf
9.33333	2	5.42504	-inf
9.43434	2	5.42504	-inf
9.53535	2	5.42504	-inf
9.63636	2	5.42504	-inf
9.73737	2	5.42504	-inf
9.83838	2	5.42504	-inf
9.93939	2	5.42504	-inf
10.0404	2	5.42504	-inf
10.1414	2	5.42504	-inf
10.2424	2	5.42504	-inf
10.3434	2	5.42504	-inf
10.4444	2	5.42504	-inf
10.5455	2	5.42504	-inf
10.6465	2	5.42504	-inf
10.7475	2	5.42504	-inf
10.8485	2	5.42504	-inf
10.9495	2	5.42504	-inf
11.0505	2	5.42504	-inf
11.1515	2	5.42504	-inf
11.2525	2	5.42504	-inf
11.3535	2	5.42504	-inf
11.4545	2	5.42504	-inf
11.5556	2	5.42504	-inf
11.6566	2	5.42504	-inf
11.7576	2	5.42504	-inf
11.8586	2	5.42504	-inf
11.9596	2	5.42504	-inf
12.0606	2	5.42504	-inf
12.1616	2	5.42504	-inf
12.2626	2	5.42504	-inf
12.3636	2	5.42504	-inf
12.4646	2	5.42504	-inf
12.5657	2	5.42504	-inf
12.6667	2	5.42504	-inf
12.7677	2	5.42504	-inf
12.8687	2	5.42504	-inf
12.9697	2	5.42504	-inf
13.0707	2	5.42504	-inf
13.1717	2	5.42504	-inf
13.2727	2	5.42504	-inf
13.3737	2	5.42504	-inf
13.4747	2	5.42504	-inf
13.5758	2	5.42504	-inf
13.6768	2	5.42504	-inf
13.7778	2	5.42504	-inf
13.8788	2	5.42504	-inf
13.9798	2	5.42504	-inf
14.0808	2	5.42504	-inf
14.1818	2	5.42504	-inf
14.2828	2	5.42504	-inf
14.3838	2	5.42504	-inf
14.4848	2	5.42504	-inf
14.5859	2	5.42504	-inf
14.6869	2	5.42504	-inf
14.7879	2	5.42504	-inf
14.8889	2	5.42504	-inf
14.9899	2	5.42504	-inf
15.0909	2	5.42504	-inf
15.1919	2	5.42504	-inf
15.2929	2	5.42504	-inf
15.3939	2	5.42504	-inf
15.4949	2	5.42504	-inf
15.596	2	5.42504	-inf
15.697	2	5.42504	-inf
15.798	2	5.42504	-inf
15.899	2	5.42504	-inf
16	2	5.42504	-inf
