log(E/eV)	z/pc	t/yr	Synchr	IC	IC - IR	SSC
-6	10	32.7213	36.8267	0	0	0
-5.2069	10	32.7213	37.262	0	0	26.6188
-4.41379	10	32.7213	37.6659	0	0	28.0085
-3.62069	10	32.7213	38.0502	0	21.9077	29.103
-2.82759	10	32.7213	38.4214	0	24.9884	29.9629
-2.03448	10	32.7213	38.7929	0	27.4188	30.6609
-1.24138	10	32.7213	39.1867	23.4338	29.5165	31.2663
-0.448276	10	32.7213	39.5937	26.0067	30.9658	31.8071
0.344828	10	32.7213	39.9759	28.3141	32.0831	32.317
1.13793	10	32.7213	40.3022	30.2464	32.9281	32.799
1.93103	10	32.7213	40.5423	31.581	33.5661	33.2663
2.72414	10	32.7213	40.6893	32.6254	34.0757	33.7161
3.51724	10	32.7213	40.7597	33.4079	34.5139	34.1645
4.31034	10	32.7213	40.7722	33.9907	34.9417	34.5843
5.10345	10	32.7213	40.7355	34.4902	35.3458	35.0217
5.89655	10	32.7213	40.6681	34.9175	35.7315	35.4255
6.68966	10	32.7213	40.5511	35.3368	36.112	35.8073
7.48276	10	32.7213	40.3227	35.6742	36.4596	36.1585
8.27586	10	32.7213	39.888	36.0212	36.9418	36.4791
9.06897	10	32.7213	39.0526	36.2913	37.3	36.7709
9.86207	10	32.7213	37.2911	36.5319	37.5581	37.0099
10.6552	10	32.7213	34.8521	36.6056	37.8713	37.1174
11.4483	10	32.7213	29.8221	35.9413	37.7877	37.0418
12.2414	10	32.7213	10.5568	34.6073	37.4704	36.68
13.0345	10	32.7213	-114.594	32.7991	36.5078	36.2039
13.8276	10	32.7213	0	30.8642	34.83	35.3885
14.6207	10	32.7213	0	28.1062	32.1406	33.6611
15.4138	10	32.7213	0	20.1857	24.232	26.6558
16.2069	10	32.7213	0	0	0	0
17	10	32.7213	0	0	0	0
-5.45569	10.8264	5.24137	38.5658	0	0	0
-4.66259	10.8264	5.24137	38.9978	0	0	27.988
-3.86948	10.8264	5.24137	39.3999	0	0	29.356
-3.07638	10.8264	5.24137	39.783	0	25.68	30.4202
-2.28328	10.8264	5.24137	40.1513	0	28.556	31.2622
-1.49017	10.8264	5.24137	40.5123	0	30.7995	31.9511
-0.697068	10.8264	5.24137	40.8694	26.9612	32.4189	32.5512
0.0960353	10.8264	5.24137	41.1872	29.4854	33.5968	33.0883
0.889139	10.8264	5.24137	41.4205	31.5936	34.4942	33.5939
1.68224	10.8264	5.24137	41.5686	33.0486	35.1908	34.0693
2.47535	10.8264	5.24137	41.652	34.1499	35.7208	34.5256
3.26845	10.8264	5.24137	41.6931	34.9853	36.1836	34.9573
4.06155	10.8264	5.24137	41.7045	35.6202	36.6251	35.382
4.85466	10.8264	5.24137	41.6878	36.1497	37.016	35.7533
5.64776	10.8264	5.24137	41.6374	36.6037	37.3957	36.1481
6.44086	10.8264	5.24137	41.5652	37.0169	37.7841	36.5006
7.23397	10.8264	5.24137	41.4451	37.3945	38.128	36.8321
8.02707	10.8264	5.24137	41.212	37.8026	38.463	37.1353
8.82017	10.8264	5.24137	40.7717	38.123	38.7954	37.411
9.61328	10.8264	5.24137	39.9298	38.3736	38.9436	37.6364
10.4064	10.8264	5.24137	38.1207	38.5445	39.0542	37.7657
11.1995	10.8264	5.24137	35.468	38.5264	39.0475	37.7066
11.9926	10.8264	5.24137	30.4423	37.9794	38.9695	37.5067
12.7857	10.8264	5.24137	9.49755	36.6296	38.7598	37.1151
13.5788	10.8264	5.24137	-126.083	34.8348	38.085	36.6481
14.3719	10.8264	5.24137	0	32.9076	36.751	35.838
15.165	10.8264	5.24137	0	30.1485	34.1566	34.1128
15.9581	10.8264	5.24137	0	22.2284	26.2833	27.1088
16.7512	10.8264	5.24137	0	0	0	0
17.5443	10.8264	5.24137	0	0	0	0
-5.45319	11.721	5.6129	38.454	0	0	0
-4.66009	11.721	5.6129	38.8843	0	0	27.7304
-3.86699	11.721	5.6129	39.2855	0	0	29.0994
-3.07388	11.721	5.6129	39.668	0	25.6206	30.1652
-2.28078	11.721	5.6129	40.036	0	28.4963	31.0079
-1.48768	11.721	5.6129	40.3972	0	30.7388	31.6969
-0.694572	11.721	5.6129	40.7535	26.9014	32.3566	32.297
0.0985311	11.721	5.6129	41.0667	29.4254	33.5354	32.834
0.891635	11.721	5.6129	41.2945	31.5324	34.4335	33.3395
1.68474	11.721	5.6129	41.438	32.9864	35.1304	33.8147
2.47784	11.721	5.6129	41.5181	34.0888	35.6605	34.2706
3.27094	11.721	5.6129	41.557	34.9248	36.1233	34.7018
4.06405	11.721	5.6129	41.5668	35.5597	36.5648	35.126
4.85715	11.721	5.6129	41.5485	36.0892	36.956	35.4962
5.65026	11.721	5.6129	41.4965	36.5432	37.3354	35.8902
6.44336	11.721	5.6129	41.4242	36.9565	37.7238	36.2419
7.23646	11.721	5.6129	41.3024	37.3338	38.0672	36.5725
8.02957	11.721	5.6129	41.0651	37.7421	38.4011	36.8747
8.82267	11.721	5.6129	40.6192	38.0624	38.7312	37.1495
9.61577	11.721	5.6129	39.7718	38.3126	38.878	37.3737
10.4089	11.721	5.6129	37.9326	38.4819	38.9874	37.5016
11.202	11.721	5.6129	35.0242	38.4613	38.9801	37.4418
11.9951	11.721	5.6129	30.0024	37.9153	38.9019	37.2426
12.7882	11.721	5.6129	7.23943	36.5656	38.6914	36.8523
13.5813	11.721	5.6129	-139.632	34.7709	38.0189	36.3859
14.3744	11.721	5.6129	0	32.8439	36.6867	35.576
15.1675	11.721	5.6129	0	30.0849	34.0927	33.851
15.9606	11.721	5.6129	0	22.1649	26.2194	26.8473
16.7537	11.721	5.6129	0	0	0	0
17.5468	11.721	5.6129	0	0	0	0
-5.45072	12.6896	6.01119	38.342	0	0	0
-4.65761	12.6896	6.01119	38.7706	0	0	27.4727
-3.86451	12.6896	6.01119	39.1709	0	0	28.8427
-3.07141	12.6896	6.01119	39.5528	0	25.5612	29.9099
-2.2783	12.6896	6.01119	39.9204	0	28.4365	30.7533
-1.4852	12.6896	6.01119	40.2817	0	30.6781	31.4425
-0.692095	12.6896	6.01119	40.6371	26.8415	32.2943	32.0425
0.101008	12.6896	6.01119	40.9456	29.3654	33.4738	32.5794
0.894111	12.6896	6.01119	41.1681	31.471	34.3726	33.0847
1.68721	12.6896	6.01119	41.307	32.9242	35.0698	33.5597
2.48032	12.6896	6.01119	41.3839	34.0276	35.5998	34.0153
3.27342	12.6896	6.01119	41.4207	34.864	36.0627	34.4459
4.06653	12.6896	6.01119	41.4288	35.4989	36.5043	34.8696
4.85963	12.6896	6.01119	41.4086	36.0284	36.8957	35.2387
5.65273	12.6896	6.01119	41.3545	36.4824	37.2748	35.6319
6.44584	12.6896	6.01119	41.2815	36.8957	37.6632	35.9827
7.23894	12.6896	6.01119	41.1577	37.2728	38.0061	36.3124
8.03204	12.6896	6.01119	40.9156	37.6813	38.3389	36.6137
8.82515	12.6896	6.01119	40.4635	38.0015	38.6668	36.8876
9.61825	12.6896	6.01119	39.6112	38.2513	38.8121	37.1105
10.4114	12.6896	6.01119	37.7546	38.419	38.9204	37.2372
11.2045	12.6896	6.01119	34.5528	38.3959	38.9125	37.1766
11.9976	12.6896	6.01119	29.5336	37.8509	38.8342	36.9781
12.7907	12.6896	6.01119	4.80219	36.5015	38.6228	36.5892
13.5838	12.6896	6.01119	-154.294	34.7069	37.9526	36.1235
14.3769	12.6896	6.01119	0	32.78	36.6222	35.3137
15.17	12.6896	6.01119	0	30.0211	34.0286	33.589
15.9631	12.6896	6.01119	0	22.1012	26.1554	26.5857
16.7562	12.6896	6.01119	0	0	0	0
17.5493	12.6896	6.01119	0	0	0	0
-5.44826	13.7382	6.43819	38.23	0	0	0
-4.65515	13.7382	6.43819	38.6567	0	0	27.2151
-3.86205	13.7382	6.43819	39.0561	0	0	28.586
-3.06895	13.7382	6.43819	39.4374	0	25.5017	29.6546
-2.27584	13.7382	6.43819	39.8046	0	28.3766	30.4986
-1.48274	13.7382	6.43819	40.1659	0	30.6172	31.188
-0.689637	13.7382	6.43819	40.5204	26.7815	32.2319	31.7879
0.103466	13.7382	6.43819	40.824	29.3052	33.4121	32.3245
0.89657	13.7382	6.43819	41.0412	31.4096	34.3115	32.8297
1.68967	13.7382	6.43819	41.1757	32.8619	35.0089	33.3044
2.48278	13.7382	6.43819	41.2495	33.9661	35.5389	33.7597
3.27588	13.7382	6.43819	41.2841	34.803	36.0018	34.1898
4.06898	13.7382	6.43819	41.2904	35.4379	36.4435	34.6129
4.86209	13.7382	6.43819	41.2681	35.9673	36.8351	34.9809
5.65519	13.7382	6.43819	41.2116	36.4213	37.2139	35.3734
6.44829	13.7382	6.43819	41.1373	36.8347	37.6023	35.7233
7.2414	13.7382	6.43819	41.0108	37.2115	37.9447	36.052
8.0345	13.7382	6.43819	40.7634	37.6203	38.2764	36.3524
8.8276	13.7382	6.43819	40.3044	37.9403	38.6021	36.6253
9.62071	13.7382	6.43819	39.447	38.1896	38.746	36.847
10.4138	13.7382	6.43819	37.581	38.3557	38.8532	36.9723
11.2069	13.7382	6.43819	34.054	38.3303	38.8447	36.9111
12	13.7382	6.43819	29.0335	37.7864	38.7662	36.7134
12.7931	13.7382	6.43819	2.17103	36.4372	38.5541	36.3258
13.5862	13.7382	6.43819	-170.159	34.6427	37.886	35.8609
14.3793	13.7382	6.43819	0	32.7159	36.5576	35.0513
15.1724	13.7382	6.43819	0	29.9571	33.9643	33.3268
15.9655	13.7382	6.43819	0	22.0373	26.0911	26.324
16.7586	13.7382	6.43819	0	0	0	0
17.5517	13.7382	6.43819	0	0	0	0
-5.44582	14.8735	6.89599	38.118	0	0	0
-4.65271	14.8735	6.89599	38.5429	0	0	26.9577
-3.85961	14.8735	6.89599	38.9413	0	0	28.3294
-3.06651	14.8735	6.89599	39.3219	0	25.4421	29.3993
-2.2734	14.8735	6.89599	39.6886	0	28.3166	30.244
-1.4803	14.8735	6.89599	40.05	0	30.5562	30.9334
-0.687197	14.8735	6.89599	40.4033	26.7213	32.1693	31.5332
0.105906	14.8735	6.89599	40.702	29.245	33.3501	32.0696
0.89901	14.8735	6.89599	40.9138	31.348	34.2502	32.5746
1.69211	14.8735	6.89599	41.044	32.7994	34.9477	33.049
2.48522	14.8735	6.89599	41.1148	33.9045	35.4777	33.5039
3.27832	14.8735	6.89599	41.1473	34.7417	35.9405	33.9335
4.07142	14.8735	6.89599	41.1516	35.3765	36.3823	34.356
4.86453	14.8735	6.89599	41.1271	35.9058	36.7741	34.7229
5.65763	14.8735	6.89599	41.0679	36.3598	37.1526	35.1146
6.45073	14.8735	6.89599	40.9917	36.7733	37.5411	35.4635
7.24384	14.8735	6.89599	40.8619	37.1499	37.883	35.7914
8.03694	14.8735	6.89599	40.6084	37.5589	38.2136	36.0907
8.83004	14.8735	6.89599	40.1414	37.8787	38.5371	36.3627
9.62315	14.8735	6.89599	39.2783	38.1276	38.6797	36.5831
10.4163	14.8735	6.89599	37.4078	38.2922	38.7858	36.7071
11.2094	14.8735	6.89599	33.5313	38.2645	38.7767	36.6452
12.0025	14.8735	6.89599	28.4997	37.7215	38.6981	36.4484
12.7956	14.8735	6.89599	-0.670063	36.3726	38.4852	36.0623
13.5887	14.8735	6.89599	-187.329	34.5783	37.8193	35.5982
14.3818	14.8735	6.89599	0	32.6516	36.4927	34.7889
15.1749	14.8735	6.89599	0	29.893	33.8998	33.0646
15.968	14.8735	6.89599	0	21.9731	26.0267	26.0622
16.7611	14.8735	6.89599	0	0	0	0
17.5542	14.8735	6.89599	0	0	0	0
-5.4434	16.1026	7.38683	38.006	0	0	0
-4.65029	16.1026	7.38683	38.4293	0	0	26.7006
-3.85719	16.1026	7.38683	38.8266	0	0	28.073
-3.06409	16.1026	7.38683	39.2064	0	25.3823	29.1442
-2.27098	16.1026	7.38683	39.5726	0	28.2564	29.9893
-1.47788	16.1026	7.38683	39.9338	0	30.4951	30.6788
-0.684776	16.1026	7.38683	40.2858	26.6611	32.1066	31.2785
0.108328	16.1026	7.38683	40.5795	29.1846	33.288	31.8147
0.901431	16.1026	7.38683	40.786	31.2863	34.1885	32.3195
1.69453	16.1026	7.38683	40.912	32.7368	34.8862	32.7935
2.48764	16.1026	7.38683	40.9799	33.8426	35.4161	33.248
3.28074	16.1026	7.38683	41.0103	34.6801	35.8789	33.677
4.07385	16.1026	7.38683	41.0127	35.3148	36.3208	34.099
4.86695	16.1026	7.38683	40.9857	35.844	36.7128	34.4647
5.66005	16.1026	7.38683	40.9235	36.2981	37.091	34.8556
6.45316	16.1026	7.38683	40.8448	36.7116	37.4795	35.2036
7.24626	16.1026	7.38683	40.7112	37.088	37.8209	35.5305
8.03936	16.1026	7.38683	40.4506	37.4971	38.1504	35.8288
8.83247	16.1026	7.38683	39.9743	37.8168	38.4718	36.0998
9.62557	16.1026	7.38683	39.1046	38.0653	38.6131	36.3189
10.4187	16.1026	7.38683	37.2319	38.2283	38.7181	36.4415
11.2118	16.1026	7.38683	32.9974	38.1983	38.7085	36.3791
12.0049	16.1026	7.38683	27.9292	37.6565	38.6297	36.1832
12.798	16.1026	7.38683	-3.73844	36.3078	38.416	35.7986
13.5911	16.1026	7.38683	-205.909	34.5136	37.7524	35.3354
14.3842	16.1026	7.38683	0	32.5871	36.4276	34.5264
15.1773	16.1026	7.38683	0	29.8285	33.835	32.8024
15.9704	16.1026	7.38683	0	21.9088	25.9619	25.8006
16.7635	16.1026	7.38683	0	0	0	0
17.5566	16.1026	7.38683	0	0	0	0
-5.44099	17.4333	7.91315	37.8942	0	0	0
-4.64789	17.4333	7.91315	38.3157	0	0	26.4437
-3.85479	17.4333	7.91315	38.712	0	0	27.8169
-3.06168	17.4333	7.91315	39.091	0	25.3224	28.8892
-2.26858	17.4333	7.91315	39.4566	0	28.1961	29.7349
-1.47548	17.4333	7.91315	39.8176	0	30.4338	30.4244
-0.682372	17.4333	7.91315	40.1681	26.6006	32.0437	31.0239
0.110732	17.4333	7.91315	40.4566	29.124	33.2255	31.5599
0.903835	17.4333	7.91315	40.6578	31.2244	34.1265	32.0644
1.69694	17.4333	7.91315	40.7797	32.674	34.8243	32.5381
2.49004	17.4333	7.91315	40.8448	33.7804	35.3542	32.9921
3.28315	17.4333	7.91315	40.8731	34.6182	35.817	33.4205
4.07625	17.4333	7.91315	40.8735	35.2527	36.2589	33.8419
4.86935	17.4333	7.91315	40.8441	35.7819	36.6511	34.2065
5.66246	17.4333	7.91315	40.7787	36.2359	37.0291	34.5965
6.45556	17.4333	7.91315	40.697	36.6495	37.4175	34.9436
7.24866	17.4333	7.91315	40.5588	37.0256	37.7584	35.2695
8.04177	17.4333	7.91315	40.2903	37.435	38.0868	35.5667
8.83487	17.4333	7.91315	39.8029	37.7546	38.406	35.8367
9.62797	17.4333	7.91315	38.9252	38.0026	38.5461	36.0544
10.4211	17.4333	7.91315	37.0515	38.164	38.6501	36.1757
11.2142	17.4333	7.91315	32.484	38.1318	38.64	36.1128
12.0073	17.4333	7.91315	27.319	37.5911	38.5611	35.9178
12.8004	17.4333	7.91315	-7.05288	36.2427	38.3466	35.5349
13.5935	17.4333	7.91315	-226.018	34.4487	37.6852	35.0726
14.3866	17.4333	7.91315	0	32.5222	36.3621	34.2641
15.1797	17.4333	7.91315	0	29.7638	33.7699	32.5404
15.9728	17.4333	7.91315	0	21.8441	25.8969	25.5391
16.7659	17.4333	7.91315	0	0	0	0
17.559	17.4333	7.91315	0	0	0	0
-5.43861	18.8739	8.47752	37.7826	0	0	0
-4.6455	18.8739	8.47752	38.2024	0	0	26.1872
-3.8524	18.8739	8.47752	38.5977	0	0	27.5611
-3.0593	18.8739	8.47752	38.9758	0	25.2622	28.6345
-2.26619	18.8739	8.47752	39.3408	0	28.1355	29.4806
-1.47309	18.8739	8.47752	39.7013	0	30.3722	30.1702
-0.679985	18.8739	8.47752	40.05	26.5399	31.9805	30.7695
0.113118	18.8739	8.47752	40.3334	29.0631	33.1628	31.3052
0.906222	18.8739	8.47752	40.5293	31.1623	34.0641	31.8094
1.69933	18.8739	8.47752	40.6471	32.6109	34.7621	32.2827
2.49243	18.8739	8.47752	40.7096	33.7179	35.2918	32.7362
3.28553	18.8739	8.47752	40.7359	34.556	35.7546	33.164
4.07864	18.8739	8.47752	40.7343	35.1903	36.1966	33.5848
4.87174	18.8739	8.47752	40.7023	35.7194	36.589	33.9482
5.66484	18.8739	8.47752	40.6337	36.1734	36.9667	34.3374
6.45795	18.8739	8.47752	40.5487	36.587	37.3551	34.6836
7.25105	18.8739	8.47752	40.4051	36.9629	37.6955	35.0085
8.04415	18.8739	8.47752	40.1275	37.3725	38.0228	35.3045
8.83726	18.8739	8.47752	39.6271	37.6919	38.3399	35.5734
9.63036	18.8739	8.47752	38.7395	37.9394	38.4788	35.7897
10.4235	18.8739	8.47752	36.8652	38.0993	38.5817	35.9097
11.2166	18.8739	8.47752	32.0425	38.065	38.5711	35.8464
12.0097	18.8739	8.47752	26.6659	37.5253	38.4921	35.6524
12.8028	18.8739	8.47752	-10.6337	36.1772	38.277	35.2711
13.5959	18.8739	8.47752	-247.78	34.3834	37.6177	34.8099
14.389	18.8739	8.47752	0	32.4571	36.2964	34.0019
15.1821	18.8739	8.47752	0	29.6988	33.7045	32.2787
15.9752	18.8739	8.47752	0	21.7791	25.8316	25.2779
16.7683	18.8739	8.47752	0	0	0	0
17.5614	18.8739	8.47752	0	0	0	0
-5.43624	20.4336	9.08273	37.6712	0	0	0
-4.64313	20.4336	9.08273	38.0894	0	0	25.931
-3.85003	20.4336	9.08273	38.4836	0	0	27.3056
-3.05693	20.4336	9.08273	38.8608	0	25.2017	28.38
-2.26382	20.4336	9.08273	39.2251	0	28.0746	29.2266
-1.47072	20.4336	9.08273	39.585	0	30.3103	29.9161
-0.677616	20.4336	9.08273	39.9317	26.479	31.9171	30.5152
0.115487	20.4336	9.08273	40.2099	29.002	33.0998	31.0507
0.908591	20.4336	9.08273	40.4005	31.0999	34.0014	31.5545
1.70169	20.4336	9.08273	40.5144	32.5475	34.6994	32.0275
2.4948	20.4336	9.08273	40.5743	33.655	35.229	32.4805
3.2879	20.4336	9.08273	40.5987	34.4933	35.6917	32.9076
4.081	20.4336	9.08273	40.5952	35.1274	36.1339	33.3277
4.87411	20.4336	9.08273	40.5606	35.6564	36.5265	33.69
5.66721	20.4336	9.08273	40.4889	36.1103	36.9039	34.0784
6.46031	20.4336	9.08273	40.4001	36.524	37.2923	34.4235
7.25342	20.4336	9.08273	40.2507	36.8997	37.6322	34.7473
8.04652	20.4336	9.08273	39.9628	37.3095	37.9583	35.0423
8.83963	20.4336	9.08273	39.4469	37.6287	38.2733	35.31
9.63273	20.4336	9.08273	38.547	37.8758	38.4111	35.5249
10.4258	20.4336	9.08273	36.6722	38.0342	38.513	35.6435
11.2189	20.4336	9.08273	31.704	37.9977	38.5019	35.5798
12.012	20.4336	9.08273	25.9664	37.4592	38.4228	35.3868
12.8051	20.4336	9.08273	-14.5029	36.1114	38.2069	35.0074
13.5982	20.4336	9.08273	-271.334	34.3177	37.5498	34.5474
14.3913	20.4336	9.08273	0	32.3915	36.2303	33.7399
15.1845	20.4336	9.08273	0	29.6334	33.6388	32.0171
15.9776	20.4336	9.08273	0	21.7137	25.7659	25.0169
16.7707	20.4336	9.08273	0	0	0	0
17.5638	20.4336	9.08273	0	0	0	0
-5.43388	22.1222	9.73177	37.5599	0	0	0
-4.64078	22.1222	9.73177	37.9766	0	0	25.6752
-3.84768	22.1222	9.73177	38.3697	0	0	27.0504
-3.05457	22.1222	9.73177	38.7461	0	25.1408	28.1257
-2.26147	22.1222	9.73177	39.1096	0	28.0134	28.9727
-1.46837	22.1222	9.73177	39.4688	0	30.2481	29.6623
-0.675264	22.1222	9.73177	39.8132	26.4176	31.8532	30.2612
0.117839	22.1222	9.73177	40.0861	28.9405	33.0363	30.7963
0.910943	22.1222	9.73177	40.2716	31.0371	33.9381	31.2998
1.70405	22.1222	9.73177	40.3816	32.4837	34.6361	31.7723
2.49715	22.1222	9.73177	40.4389	33.5917	35.1656	32.2248
3.29025	22.1222	9.73177	40.4615	34.4301	35.6284	32.6513
4.08336	22.1222	9.73177	40.4562	35.064	36.0706	33.0708
4.87646	22.1222	9.73177	40.4193	35.5928	36.4634	33.4318
5.66956	22.1222	9.73177	40.3446	36.0468	36.8405	33.8194
6.46267	22.1222	9.73177	40.2519	36.4605	37.2289	34.1634
7.25577	22.1222	9.73177	40.0959	36.836	37.5683	34.4862
8.04887	22.1222	9.73177	39.7965	37.246	37.8932	34.7799
8.84198	22.1222	9.73177	39.2625	37.565	38.2062	35.0465
9.63508	22.1222	9.73177	38.3471	37.8116	38.343	35.2599
10.4282	22.1222	9.73177	36.4715	37.9685	38.4438	35.3773
11.2213	22.1222	9.73177	31.4421	37.9299	38.4323	35.3132
12.0144	22.1222	9.73177	25.2166	37.3926	38.3531	35.1213
12.8075	22.1222	9.73177	-18.6844	36.0451	38.1365	34.7437
13.6006	22.1222	9.73177	0	34.2516	37.4815	34.285
14.3937	22.1222	9.73177	0	32.3255	36.1637	33.4782
15.1868	22.1222	9.73177	0	29.5675	33.5725	31.7559
15.9799	22.1222	9.73177	0	21.6479	25.6997	24.7563
16.773	22.1222	9.73177	0	0	0	0
17.5661	22.1222	9.73177	0	0	0	0
-5.43155	23.9503	10.4278	37.4487	0	0	0
-4.63845	23.9503	10.4278	37.864	0	0	25.4196
-3.84534	23.9503	10.4278	38.2561	0	0	26.7954
-3.05224	23.9503	10.4278	38.6316	0	25.0795	27.8716
-2.25914	23.9503	10.4278	38.9943	0	27.9517	28.719
-1.46603	23.9503	10.4278	39.3526	0	30.1854	29.4086
-0.672929	23.9503	10.4278	39.6944	26.3559	31.789	30.0073
0.120175	23.9503	10.4278	39.9621	28.8786	32.9723	30.5421
0.913278	23.9503	10.4278	40.1424	30.9738	33.8743	31.0453
1.70638	23.9503	10.4278	40.2487	32.4195	34.5723	31.5173
2.49948	23.9503	10.4278	40.3037	33.5279	35.1017	31.9692
3.29259	23.9503	10.4278	40.3246	34.3663	35.5644	32.395
4.08569	23.9503	10.4278	40.3176	35	36.0067	32.8139
4.8788	23.9503	10.4278	40.2784	35.5287	36.3997	33.1737
5.6719	23.9503	10.4278	40.2012	35.9827	36.7765	33.5604
6.465	23.9503	10.4278	40.1044	36.3964	37.165	33.9034
7.25811	23.9503	10.4278	39.9414	36.7716	37.5038	34.2251
8.05121	23.9503	10.4278	39.6295	37.1818	37.8276	34.5176
8.84431	23.9503	10.4278	39.0743	37.5008	38.1385	34.7829
9.63742	23.9503	10.4278	38.1391	37.7468	38.2743	34.9949
10.4305	23.9503	10.4278	36.2624	37.9022	38.3741	35.1109
11.2236	23.9503	10.4278	31.2119	37.8616	38.3622	35.0465
12.0167	23.9503	10.4278	24.4123	37.3254	38.2829	34.8558
12.8098	23.9503	10.4278	-23.2039	35.9783	38.0655	34.4801
13.6029	23.9503	10.4278	0	34.185	37.4127	34.0227
14.396	23.9503	10.4278	0	32.259	36.0966	33.2167
15.1891	23.9503	10.4278	0	29.5011	33.5058	31.4949
15.9822	23.9503	10.4278	0	21.5815	25.6331	24.4959
16.7753	23.9503	10.4278	0	0	0	0
17.5685	23.9503	10.4278	0	0	0	0
-5.42923	25.9294	11.1744	37.3375	0	0	0
-4.63613	25.9294	11.1744	37.7515	0	0	25.1641
-3.84302	25.9294	11.1744	38.1426	0	0	26.5406
-3.04992	25.9294	11.1744	38.5172	0	25.0177	27.6177
-2.25682	25.9294	11.1744	38.8791	0	27.8894	28.4654
-1.46371	25.9294	11.1744	39.2364	0	30.1222	29.1549
-0.67061	25.9294	11.1744	39.5754	26.2935	31.7242	29.7535
0.122493	25.9294	11.1744	39.8378	28.8161	32.9077	30.288
0.915597	25.9294	11.1744	40.0131	30.91	33.8099	30.7908
1.7087	25.9294	11.1744	40.1158	32.3547	34.5079	31.2623
2.5018	25.9294	11.1744	40.1685	33.4635	35.0371	31.7137
3.29491	25.9294	11.1744	40.1879	34.3019	35.4997	32.1388
4.08801	25.9294	11.1744	40.1795	34.9354	35.9421	32.557
4.88111	25.9294	11.1744	40.1382	35.4639	36.3353	32.9156
5.67422	25.9294	11.1744	40.0589	35.9178	36.7118	33.3014
6.46732	25.9294	11.1744	39.9582	36.3316	37.1003	33.6435
7.26042	25.9294	11.1744	39.7879	36.7066	37.4386	33.964
8.05353	25.9294	11.1744	39.4626	37.117	37.7612	34.2552
8.84663	25.9294	11.1744	38.883	37.4358	38.0701	34.5193
9.63973	25.9294	11.1744	37.9225	37.6813	38.2049	34.7298
10.4328	25.9294	11.1744	36.044	37.8353	38.3037	34.8444
11.2259	25.9294	11.1744	30.9871	37.7926	38.2914	34.7798
12.019	25.9294	11.1744	23.5491	37.2576	38.212	34.5902
12.8121	25.9294	11.1744	-28.0894	35.9109	37.994	34.2166
13.6053	25.9294	11.1744	0	34.1177	37.3433	33.7606
14.3984	25.9294	11.1744	0	32.1919	36.0289	32.9553
15.1915	25.9294	11.1744	0	29.4341	33.4384	31.2341
15.9846	25.9294	11.1744	0	21.5145	25.5657	24.2357
16.7777	25.9294	11.1744	0	0	0	0
17.5708	25.9294	11.1744	0	0	0	0
-5.42693	28.0722	11.9752	37.2262	0	0	0
-4.63383	28.0722	11.9752	37.639	0	0	24.9088
-3.84072	28.0722	11.9752	38.0292	0	0	26.2858
-3.04762	28.0722	11.9752	38.4029	0	24.9552	27.3637
-2.25451	28.0722	11.9752	38.764	0	27.8265	28.2118
-1.46141	28.0722	11.9752	39.1202	0	30.0583	28.9013
-0.668308	28.0722	11.9752	39.4562	26.2305	31.6587	29.4997
0.124795	28.0722	11.9752	39.7134	28.7529	32.8424	30.0339
0.917899	28.0722	11.9752	39.8837	30.8455	33.7446	30.5363
1.711	28.0722	11.9752	39.9829	32.2892	34.4425	31.0074
2.50411	28.0722	11.9752	40.0335	33.3983	34.9716	31.4582
3.29721	28.0722	11.9752	40.0516	34.2367	35.4342	31.8826
4.09031	28.0722	11.9752	40.0418	34.8699	35.8767	32.3001
4.88342	28.0722	11.9752	39.9988	35.3983	36.2701	32.6575
5.67652	28.0722	11.9752	39.918	35.8522	36.6463	33.0425
6.46962	28.0722	11.9752	39.8137	36.266	37.0348	33.3834
7.26273	28.0722	11.9752	39.636	36.6407	37.3725	33.7029
8.05583	28.0722	11.9752	39.2966	37.0514	37.6941	33.9928
8.84893	28.0722	11.9752	38.6897	37.3699	38.0008	34.2556
9.64204	28.0722	11.9752	37.6968	37.615	38.1348	34.4646
10.4351	28.0722	11.9752	35.8154	37.7675	38.2326	34.5779
11.2282	28.0722	11.9752	30.7569	37.7228	38.2199	34.513
12.0213	28.0722	11.9752	22.622	37.1891	38.1404	34.3246
12.8145	28.0722	11.9752	-33.371	35.8427	37.9217	33.953
13.6076	28.0722	11.9752	0	34.0497	37.2731	33.4986
14.4007	28.0722	11.9752	0	32.124	35.9604	32.6941
15.1938	28.0722	11.9752	0	29.3663	33.3703	30.9735
15.9869	28.0722	11.9752	0	21.4467	25.4977	23.9757
16.78	28.0722	11.9752	0	0	0	0
17.5731	28.0722	11.9752	0	0	0	0
-5.42464	30.392	12.8341	37.1147	0	0	0
-4.63154	30.392	12.8341	37.5264	0	0	24.6533
-3.83844	30.392	12.8341	37.9158	0	0	26.0309
-3.04533	30.392	12.8341	38.2887	0	24.8917	27.1096
-2.25223	30.392	12.8341	38.649	0	27.7627	27.958
-1.45913	30.392	12.8341	39.0039	0	29.9935	28.6475
-0.666022	30.392	12.8341	39.3366	26.1667	31.5923	29.2457
0.127082	30.392	12.8341	39.5886	28.6889	32.7761	29.7797
0.920185	30.392	12.8341	39.7541	30.7802	33.6784	30.2817
1.71329	30.392	12.8341	39.85	32.2229	34.3762	30.7523
2.50639	30.392	12.8341	39.8987	33.3321	34.9052	31.2025
3.2995	30.392	12.8341	39.9155	34.1705	35.3677	31.6262
4.0926	30.392	12.8341	39.9046	34.8034	35.8102	32.0431
4.8857	30.392	12.8341	39.8603	35.3317	36.2039	32.3993
5.67881	30.392	12.8341	39.7786	35.7855	36.5798	32.7835
6.47191	30.392	12.8341	39.671	36.1994	36.9682	33.1234
7.26501	30.392	12.8341	39.486	36.5739	37.3055	33.4416
8.05812	30.392	12.8341	39.1326	36.9847	37.6258	33.7303
8.85122	30.392	12.8341	38.4957	37.3031	37.9306	33.9918
9.64432	30.392	12.8341	37.4617	37.5477	38.0637	34.1992
10.4374	30.392	12.8341	35.5757	37.6986	38.1605	34.3112
11.2305	30.392	12.8341	30.5176	37.6521	38.1475	34.2461
12.0236	30.392	12.8341	21.6259	37.1196	38.0679	34.0589
12.8167	30.392	12.8341	-39.0816	35.7736	37.8485	33.6895
13.6098	30.392	12.8341	0	33.9808	37.202	33.2365
14.4029	30.392	12.8341	0	32.0552	35.8909	32.4329
15.196	30.392	12.8341	0	29.2976	33.3012	30.7128
15.9892	30.392	12.8341	0	21.378	25.4286	23.7156
16.7823	30.392	12.8341	0	0	0	0
17.5754	30.392	12.8341	0	0	0	0
-5.42237	32.9034	13.7554	37.0029	0	0	0
-4.62927	32.9034	13.7554	37.4136	0	0	24.3978
-3.83617	32.9034	13.7554	37.8022	0	0	25.7758
-3.04306	32.9034	13.7554	38.1743	0	24.8272	26.8553
-2.24996	32.9034	13.7554	38.5338	0	27.6977	27.704
-1.45686	32.9034	13.7554	38.8875	0	29.9275	28.3935
-0.663752	32.9034	13.7554	39.2167	26.1017	31.5248	28.9916
0.129352	32.9034	13.7554	39.4636	28.6237	32.7087	29.5253
0.922455	32.9034	13.7554	39.6243	30.7137	33.611	30.027
1.71556	32.9034	13.7554	39.717	32.1554	34.3087	30.4971
2.50866	32.9034	13.7554	39.7639	33.2648	34.8375	30.9467
3.30177	32.9034	13.7554	39.7796	34.1031	35.3	31.3697
4.09487	32.9034	13.7554	39.7679	34.7357	35.7425	31.7859
4.88797	32.9034	13.7554	39.7225	35.2638	36.1364	32.1409
5.68108	32.9034	13.7554	39.6405	35.7176	36.5121	32.5243
6.47418	32.9034	13.7554	39.5303	36.1315	36.9005	32.8631
7.26728	32.9034	13.7554	39.3384	36.5058	37.2372	33.1802
8.06039	32.9034	13.7554	38.9712	36.9168	37.5564	33.4676
8.85349	32.9034	13.7554	38.3027	37.235	37.8591	33.7277
9.64659	32.9034	13.7554	37.2172	37.4791	37.9914	33.9336
10.4397	32.9034	13.7554	35.3239	37.6286	38.0872	34.0443
11.2328	32.9034	13.7554	30.2671	37.5802	38.0739	33.979
12.0259	32.9034	13.7554	20.555	37.0489	37.9942	33.7931
12.819	32.9034	13.7554	-45.2566	35.7033	37.7742	33.4257
13.6121	32.9034	13.7554	0	33.9106	37.1298	32.9744
14.4052	32.9034	13.7554	0	31.9852	35.8203	32.1717
15.1983	32.9034	13.7554	0	29.2277	33.2309	30.4521
15.9914	32.9034	13.7554	0	21.3082	25.3584	23.4554
16.7845	32.9034	13.7554	0	0	0	0
17.5776	32.9034	13.7554	0	0	0	0
-5.42012	35.6225	14.7438	36.8908	0	0	0
-4.62701	35.6225	14.7438	37.3005	0	0	24.142
-3.83391	35.6225	14.7438	37.6883	0	0	25.5205
-3.04081	35.6225	14.7438	38.0597	0	24.7612	26.6006
-2.2477	35.6225	14.7438	38.4186	0	27.6314	27.4497
-1.4546	35.6225	14.7438	38.7708	0	29.8602	28.1392
-0.661497	35.6225	14.7438	39.0964	26.0353	31.4558	28.7371
0.131606	35.6225	14.7438	39.3382	28.5571	32.6398	29.2705
0.92471	35.6225	14.7438	39.4943	30.6458	33.542	29.7719
1.71781	35.6225	14.7438	39.5839	32.0864	34.2396	30.2415
2.51092	35.6225	14.7438	39.6291	33.196	34.7682	30.6906
3.30402	35.6225	14.7438	39.644	34.0342	35.2307	31.1129
4.09712	35.6225	14.7438	39.6315	34.6665	35.6733	31.5285
4.89023	35.6225	14.7438	39.5854	35.1944	36.0673	31.8823
5.68333	35.6225	14.7438	39.5037	35.6481	36.4427	32.2648
6.47643	35.6225	14.7438	39.3913	36.0621	36.8311	32.6027
7.26954	35.6225	14.7438	39.193	36.4361	37.1673	32.9186
8.06264	35.6225	14.7438	38.813	36.8473	37.4853	33.2047
8.85574	35.6225	14.7438	38.1127	37.1654	37.7861	33.4635
9.64885	35.6225	14.7438	36.9635	37.4089	37.9176	33.6678
10.442	35.6225	14.7438	35.0589	37.557	38.0125	33.7771
11.2351	35.6225	14.7438	30.0041	37.5067	37.9988	33.7117
12.0282	35.6225	14.7438	19.4031	36.9766	37.919	33.5271
12.8213	35.6225	14.7438	-51.9344	35.6314	37.6984	33.1618
13.6144	35.6225	14.7438	0	33.839	37.056	32.7121
14.4075	35.6225	14.7438	0	31.9136	35.7482	31.9103
15.2006	35.6225	14.7438	0	29.1563	33.1591	30.1912
15.9937	35.6225	14.7438	0	21.2368	25.2867	23.195
16.7868	35.6225	14.7438	0	0	0	0
17.5799	35.6225	14.7438	0	0	0	0
-5.41788	38.5662	15.8041	36.7781	0	0	0
-4.62478	38.5662	15.8041	37.1869	0	0	23.8858
-3.83167	38.5662	15.8041	37.574	0	0	25.2648
-3.03857	38.5662	15.8041	37.9448	0	24.6933	26.3456
-2.24546	38.5662	15.8041	38.303	0	27.563	27.1949
-1.45236	38.5662	15.8041	38.654	0	29.7908	27.8844
-0.659258	38.5662	15.8041	38.9757	25.9669	31.3849	28.4822
0.133845	38.5662	15.8041	39.2124	28.4885	32.5689	29.0154
0.926949	38.5662	15.8041	39.364	30.5759	33.471	29.5165
1.72005	38.5662	15.8041	39.4506	32.0155	34.1685	29.9856
2.51316	38.5662	15.8041	39.4943	33.1251	34.6969	30.4341
3.30626	38.5662	15.8041	39.5083	33.9632	35.1593	30.8558
4.09936	38.5662	15.8041	39.4953	34.5952	35.6019	31.2707
4.89247	38.5662	15.8041	39.4486	35.1229	35.9962	31.6234
5.68557	38.5662	15.8041	39.3679	35.5766	36.3713	32.0051
6.47867	38.5662	15.8041	39.2538	35.9906	36.7597	32.3419
7.27178	38.5662	15.8041	39.0497	36.3644	37.0953	32.6568
8.06488	38.5662	15.8041	38.6581	36.7758	37.4122	32.9415
8.85798	38.5662	15.8041	37.9273	37.0936	37.711	33.1989
9.65109	38.5662	15.8041	36.7017	37.3367	37.8417	33.4017
10.4442	38.5662	15.8041	34.7796	37.4832	37.9357	33.5097
11.2373	38.5662	15.8041	29.7274	37.4312	37.9217	33.4442
12.0304	38.5662	15.8041	18.1635	36.9023	37.8418	33.2608
12.8235	38.5662	15.8041	-59.1564	35.5575	37.6206	32.8977
13.6166	38.5662	15.8041	0	33.7653	36.9803	32.4496
14.4097	38.5662	15.8041	0	31.8401	35.674	31.6487
15.2028	38.5662	15.8041	0	29.0828	33.0853	29.9301
15.9959	38.5662	15.8041	0	21.1633	25.213	22.9343
16.789	38.5662	15.8041	0	0	0	0
17.5821	38.5662	15.8041	0	0	0	0
-5.41566	41.7532	16.9417	36.665	0	0	0
-4.62255	41.7532	16.9417	37.0729	0	0	23.6292
-3.82945	41.7532	16.9417	37.4594	0	0	25.0087
-3.03634	41.7532	16.9417	37.8295	0	24.6226	26.0901
-2.24324	41.7532	16.9417	38.1872	0	27.4919	26.9397
-1.45014	41.7532	16.9417	38.5368	0	29.7187	27.6292
-0.657034	41.7532	16.9417	38.8546	25.8957	31.3112	28.2268
0.136069	41.7532	16.9417	39.0862	28.4171	32.4952	28.7598
0.929173	41.7532	16.9417	39.2334	30.5032	33.3972	29.2606
1.72228	41.7532	16.9417	39.3172	31.9417	34.0944	29.7293
2.51538	41.7532	16.9417	39.3593	33.0514	34.6226	30.1773
3.30848	41.7532	16.9417	39.3726	33.8893	35.085	30.5982
4.10159	41.7532	16.9417	39.3591	34.521	35.5277	31.0126
4.89469	41.7532	16.9417	39.312	35.0485	35.9222	31.3641
5.68779	41.7532	16.9417	39.2325	35.5021	36.297	31.745
6.4809	41.7532	16.9417	39.1172	35.9162	36.6854	32.0808
7.274	41.7532	16.9417	38.908	36.2897	37.0204	32.3945
8.0671	41.7532	16.9417	38.5063	36.7013	37.3362	32.678
8.86021	41.7532	16.9417	37.7478	37.019	37.633	32.934
9.65331	41.7532	16.9417	36.4338	37.2615	37.763	33.1353
10.4464	41.7532	16.9417	34.4848	37.4066	37.856	33.2419
11.2395	41.7532	16.9417	29.4356	37.3528	37.8418	33.1763
12.0326	41.7532	16.9417	16.829	36.8252	37.7618	32.9942
12.8257	41.7532	16.9417	-66.9678	35.4808	37.54	32.6332
13.6188	41.7532	16.9417	0	33.6888	36.9017	32.1868
14.4119	41.7532	16.9417	0	31.7637	35.597	31.3868
15.205	41.7532	16.9417	0	29.0065	33.0086	29.6686
15.9981	41.7532	16.9417	0	21.0871	25.1364	22.6733
16.7912	41.7532	16.9417	0	0	0	0
17.5843	41.7532	16.9417	0	0	0	0
-5.41345	45.2035	18.1621	36.5513	0	0	0
-4.62034	45.2035	18.1621	36.9583	0	0	23.3723
-3.82724	45.2035	18.1621	37.3442	0	0	24.7521
-3.03414	45.2035	18.1621	37.7138	0	24.5475	25.8341
-2.24103	45.2035	18.1621	38.071	0	27.4164	26.684
-1.44793	45.2035	18.1621	38.4193	0	29.6422	27.3735
-0.654826	45.2035	18.1621	38.7329	25.8201	31.2331	27.971
0.138278	45.2035	18.1621	38.9595	28.3414	32.417	28.5038
0.931381	45.2035	18.1621	39.1024	30.4261	33.3189	29.0042
1.72448	45.2035	18.1621	39.1834	31.8636	34.016	29.4725
2.51759	45.2035	18.1621	39.2241	32.9733	34.5439	29.92
3.31069	45.2035	18.1621	39.2366	33.811	35.0062	30.3403
4.1038	45.2035	18.1621	39.2226	34.4423	35.449	30.754
4.8969	45.2035	18.1621	39.1753	34.9697	35.8437	31.1044
5.69	45.2035	18.1621	39.0973	35.4232	36.2183	31.4846
6.48311	45.2035	18.1621	38.9811	35.8373	36.6066	31.8193
7.27621	45.2035	18.1621	38.7673	36.2106	36.9411	32.1319
8.06931	45.2035	18.1621	38.3569	36.6224	37.2557	32.4141
8.86242	45.2035	18.1621	37.5748	36.9399	37.5506	32.6688
9.65552	45.2035	18.1621	36.1633	37.1819	37.6799	32.8685
10.4486	45.2035	18.1621	34.1733	37.3256	37.7719	32.9738
11.2417	45.2035	18.1621	29.1273	37.27	37.7575	32.9082
12.0348	45.2035	18.1621	15.3918	36.7436	37.6774	32.7272
12.8279	45.2035	18.1621	-75.4171	35.3997	37.455	32.3685
13.621	45.2035	18.1621	0	33.6078	36.8187	31.9237
14.4141	45.2035	18.1621	0	31.6829	35.5156	31.1245
15.2072	45.2035	18.1621	0	28.9258	32.9276	29.4067
16.0003	45.2035	18.1621	0	21.0064	25.0554	22.4118
16.7935	45.2035	18.1621	0	0	0	0
17.5866	45.2035	18.1621	0	0	0	0
-5.41125	48.939	19.4716	36.4371	0	0	0
-4.61815	48.939	19.4716	36.8433	0	0	23.1149
-3.82505	48.939	19.4716	37.2286	0	0	24.4951
-3.03194	48.939	19.4716	37.5976	0	24.4635	25.5776
-2.23884	48.939	19.4716	37.9545	0	27.332	26.4277
-1.44574	48.939	19.4716	38.3015	0	29.5569	27.1172
-0.652632	48.939	19.4716	38.6108	25.7358	31.1463	27.7146
0.140472	48.939	19.4716	38.8324	28.2569	32.33	28.2472
0.933575	48.939	19.4716	38.9711	30.3402	33.2317	28.7474
1.72668	48.939	19.4716	39.0493	31.7767	33.9286	29.2153
2.51978	48.939	19.4716	39.0885	32.8864	34.4564	29.6622
3.31289	48.939	19.4716	39.1003	33.7238	34.9185	30.0819
4.10599	48.939	19.4716	39.0858	34.3548	35.3614	30.495
4.89909	48.939	19.4716	39.0382	34.8819	35.7563	30.8443
5.6922	48.939	19.4716	38.9617	35.3354	36.1306	31.2237
6.4853	48.939	19.4716	38.8448	35.7496	36.5189	31.5575
7.2784	48.939	19.4716	38.6269	36.1226	36.8528	31.869
8.07151	48.939	19.4716	38.2091	36.5346	37.1662	32.1499
8.86461	48.939	19.4716	37.408	36.8518	37.4592	32.4031
9.65771	48.939	19.4716	35.8954	37.0933	37.588	32.6013
10.4508	48.939	19.4716	33.8436	37.2356	37.679	32.7054
11.2439	48.939	19.4716	28.8012	37.1783	37.6643	32.6396
12.037	48.939	19.4716	13.8433	36.6532	37.5841	32.46
12.8301	48.939	19.4716	-84.5571	35.3097	37.3611	32.1034
13.6232	48.939	19.4716	0	33.518	36.7268	31.6602
14.4163	48.939	19.4716	0	31.5932	35.4253	30.8618
15.2094	48.939	19.4716	0	28.8363	32.8376	29.1444
16.0025	48.939	19.4716	0	20.9168	24.9655	22.1499
16.7956	48.939	19.4716	0	0	0	0
17.5887	48.939	19.4716	0	0	0	0
-5.40907	52.9832	20.8767	36.3224	0	0	0
-4.61597	52.9832	20.8767	36.7278	0	0	22.857
-3.82287	52.9832	20.8767	37.1125	0	0	24.2376
-3.02976	52.9832	20.8767	37.481	0	24.3651	25.3207
-2.23666	52.9832	20.8767	37.8376	0	27.2332	26.171
-1.44356	52.9832	20.8767	38.1833	0	29.4571	26.8605
-0.650453	52.9832	20.8767	38.4883	25.6369	31.0449	27.4578
0.142651	52.9832	20.8767	38.7049	28.1578	32.2285	27.9902
0.935754	52.9832	20.8767	38.8394	30.2398	33.1299	28.4901
1.72886	52.9832	20.8767	38.915	31.6753	33.8266	28.9575
2.52196	52.9832	20.8767	38.9527	32.7848	34.3542	29.404
3.31506	52.9832	20.8767	38.9637	33.622	34.8163	29.823
4.10817	52.9832	20.8767	38.9485	34.2526	35.2592	30.2356
4.90127	52.9832	20.8767	38.9004	34.7796	35.6542	30.5837
5.69437	52.9832	20.8767	38.8254	35.233	36.0283	30.9624
6.48748	52.9832	20.8767	38.7079	35.6472	36.4166	31.2952
7.28058	52.9832	20.8767	38.4862	36.02	36.75	31.6056
8.07369	52.9832	20.8767	38.0621	36.4322	37.0622	31.8852
8.86679	52.9832	20.8767	37.2461	36.7492	37.3533	32.1371
9.65989	52.9832	20.8767	35.6365	36.9901	37.4814	32.3337
10.453	52.9832	20.8767	33.4942	37.131	37.5715	32.4365
11.2461	52.9832	20.8767	28.4557	37.072	37.5566	32.3708
12.0392	52.9832	20.8767	12.1744	36.5482	37.4763	32.1924
12.8323	52.9832	20.8767	-94.4449	35.2052	37.2528	31.8379
13.6254	52.9832	20.8767	0	33.4137	36.6204	31.3964
14.4185	52.9832	20.8767	0	31.489	35.3205	30.5988
15.2116	52.9832	20.8767	0	28.7322	32.7331	28.8817
16.0047	52.9832	20.8767	0	20.8127	24.8611	21.8875
16.7978	52.9832	20.8767	0	0	0	0
17.5909	52.9832	20.8767	0	0	0	0
-5.40691	57.3615	22.3844	36.2073	0	0	0
-4.61381	57.3615	22.3844	36.6117	0	0	22.5989
-3.8207	57.3615	22.3844	36.9959	0	0	23.9798
-3.0276	57.3615	22.3844	37.364	0	24.2771	25.0633
-2.23449	57.3615	22.3844	37.7203	0	27.1448	25.9138
-1.44139	57.3615	22.3844	38.0647	0	29.3677	26.6033
-0.648288	57.3615	22.3844	38.3652	25.5485	30.9539	27.2005
0.144815	57.3615	22.3844	38.5769	28.0692	32.1374	27.7327
0.937919	57.3615	22.3844	38.7074	30.1499	33.0386	28.2323
1.73102	57.3615	22.3844	38.7803	31.5843	33.735	28.6994
2.52413	57.3615	22.3844	38.8166	32.6937	34.2623	29.1453
3.31723	57.3615	22.3844	38.8266	33.5307	34.7244	29.5638
4.11033	57.3615	22.3844	38.8106	34.1608	35.1673	29.9758
4.90344	57.3615	22.3844	38.7618	34.6876	35.5626	30.3228
5.69654	57.3615	22.3844	38.6881	35.141	35.9364	30.7008
6.48964	57.3615	22.3844	38.5699	35.5552	36.3246	31.0326
7.28275	57.3615	22.3844	38.3444	35.9278	36.6575	31.3419
8.07585	57.3615	22.3844	37.9147	36.3401	36.9685	31.6202
8.86895	57.3615	22.3844	37.0876	36.657	37.2577	31.8707
9.66206	57.3615	22.3844	35.393	36.8973	37.3853	32.0658
10.4552	57.3615	22.3844	33.1236	37.0368	37.4744	32.1673
11.2483	57.3615	22.3844	28.0893	36.9762	37.4592	32.1016
12.0414	57.3615	22.3844	10.3751	36.4536	37.3789	31.9244
12.8345	57.3615	22.3844	-105.142	35.111	37.1549	31.5721
13.6276	57.3615	22.3844	0	33.3197	36.5245	31.1322
14.4207	57.3615	22.3844	0	31.3952	35.2261	30.3354
15.2138	57.3615	22.3844	0	28.6384	32.639	28.6187
16.0069	57.3615	22.3844	0	20.719	24.7671	21.6247
16.8	57.3615	22.3844	0	0	0	0
17.5931	57.3615	22.3844	0	0	0	0
-5.40476	62.1017	24.0024	36.0918	0	0	0
-4.61165	62.1017	24.0024	36.4953	0	0	22.3404
-3.81855	62.1017	24.0024	36.8789	0	0	23.7216
-3.02545	62.1017	24.0024	37.2466	0	24.1916	24.8056
-2.23234	62.1017	24.0024	37.6026	0	27.0588	25.6563
-1.43924	62.1017	24.0024	37.9458	0	29.2807	26.3457
-0.646138	62.1017	24.0024	38.2417	25.4625	30.8654	26.9428
0.146966	62.1017	24.0024	38.4485	27.983	32.0487	27.4748
0.940069	62.1017	24.0024	38.5751	30.0624	32.9496	27.9742
1.73317	62.1017	24.0024	38.6454	31.4957	33.6457	28.4408
2.52628	62.1017	24.0024	38.6801	32.605	34.1728	28.8863
3.31938	62.1017	24.0024	38.689	33.4416	34.6348	29.3041
4.11248	62.1017	24.0024	38.6721	34.0714	35.0778	29.7155
4.90559	62.1017	24.0024	38.6223	34.598	35.4733	30.0615
5.69869	62.1017	24.0024	38.5494	35.0513	35.8468	30.4388
6.49179	62.1017	24.0024	38.4304	35.4656	36.235	30.7696
7.2849	62.1017	24.0024	38.2012	35.8379	36.5673	31.0778
8.078	62.1017	24.0024	37.7661	36.2504	36.8772	31.3549
8.8711	62.1017	24.0024	36.9307	36.567	37.1645	31.604
9.66421	62.1017	24.0024	35.169	36.8069	37.2915	31.7975
10.4573	62.1017	24.0024	32.7301	36.9449	37.3798	31.8978
11.2504	62.1017	24.0024	27.7001	36.8827	37.3643	31.8321
12.0435	62.1017	24.0024	8.43471	36.3614	37.2839	31.6562
12.8366	62.1017	24.0024	-116.716	35.0192	37.0594	31.3059
13.6297	62.1017	24.0024	0	33.2282	36.4309	30.8677
14.4228	62.1017	24.0024	0	31.3038	35.134	30.0717
15.2159	62.1017	24.0024	0	28.5471	32.5473	28.3552
16.009	62.1017	24.0024	0	20.6277	24.6754	21.3616
16.8021	62.1017	24.0024	0	0	0	0
17.5952	62.1017	24.0024	0	0	0	0
-5.40262	67.2336	25.7386	35.9759	0	0	0
-4.60952	67.2336	25.7386	36.3786	0	0	22.0817
-3.81642	67.2336	25.7386	36.7616	0	0	23.4631
-3.02331	67.2336	25.7386	37.1288	0	24.1068	24.5475
-2.23021	67.2336	25.7386	37.4846	0	26.9737	25.3984
-1.4371	67.2336	25.7386	37.8265	0	29.1946	26.0878
-0.644002	67.2336	25.7386	38.1178	25.3774	30.7777	26.6847
0.149102	67.2336	25.7386	38.3198	27.8976	31.9607	27.2166
0.942205	67.2336	25.7386	38.4425	29.9757	32.8613	27.7157
1.73531	67.2336	25.7386	38.5103	31.4079	33.5572	28.182
2.52841	67.2336	25.7386	38.5433	32.5171	34.0841	28.6269
3.32152	67.2336	25.7386	38.5511	33.3534	34.546	29.0442
4.11462	67.2336	25.7386	38.5328	33.9828	34.9891	29.455
4.90772	67.2336	25.7386	38.4818	34.5091	35.3847	29.7999
5.70083	67.2336	25.7386	38.4093	34.9624	35.758	30.1765
6.49393	67.2336	25.7386	38.2891	35.3767	36.1462	30.5063
7.28703	67.2336	25.7386	38.056	35.7488	36.4779	30.8134
8.08014	67.2336	25.7386	37.6156	36.1614	36.7866	31.0892
8.87324	67.2336	25.7386	36.7737	36.4779	37.072	31.3369
9.66634	67.2336	25.7386	34.9647	36.7171	37.1986	31.529
10.4594	67.2336	25.7386	32.3119	36.8538	37.2859	31.628
11.2526	67.2336	25.7386	27.2862	36.7901	37.2703	31.5623
12.0457	67.2336	25.7386	6.34147	36.27	37.1898	31.3876
12.8388	67.2336	25.7386	-129.239	34.9283	36.9647	31.0395
13.6319	67.2336	25.7386	0	33.1374	36.3382	30.6029
14.425	67.2336	25.7386	0	31.2132	35.0428	29.8077
15.2181	67.2336	25.7386	0	28.4566	32.4564	28.0915
16.0112	67.2336	25.7386	0	20.5371	24.5846	21.0982
16.8043	67.2336	25.7386	0	0	0	0
17.5974	67.2336	25.7386	0	0	0	0
-5.4005	72.7895	27.602	35.8599	0	0	0
-4.6074	72.7895	27.602	36.2616	0	0	21.8229
-3.81429	72.7895	27.602	36.644	0	0	23.2045
-3.02119	72.7895	27.602	37.0108	0	24.0223	24.2893
-2.22809	72.7895	27.602	37.3663	0	26.8887	25.1403
-1.43498	72.7895	27.602	37.7069	0	29.1086	25.8296
-0.641879	72.7895	27.602	37.9935	25.2924	30.6902	26.4264
0.151224	72.7895	27.602	38.1907	27.8124	31.873	26.9581
0.944328	72.7895	27.602	38.3096	29.8892	32.7732	27.4569
1.73743	72.7895	27.602	38.3749	31.3204	33.4689	27.9228
2.53053	72.7895	27.602	38.4063	32.4293	33.9955	28.3672
3.32364	72.7895	27.602	38.4127	33.2653	34.4573	28.7839
4.11674	72.7895	27.602	38.393	33.8943	34.9004	29.1942
4.90984	72.7895	27.602	38.3403	34.4204	35.2963	29.538
5.70295	72.7895	27.602	38.2677	34.8736	35.6693	29.9139
6.49605	72.7895	27.602	38.1459	35.2879	36.0574	30.2427
7.28916	72.7895	27.602	37.9085	35.6598	36.3885	30.5487
8.08226	72.7895	27.602	37.4625	36.0726	36.6961	30.8232
8.87536	72.7895	27.602	36.6152	36.3888	36.9797	31.0696
9.66847	72.7895	27.602	34.776	36.6275	37.1058	31.2601
10.4616	72.7895	27.602	31.8675	36.7628	37.1921	31.3579
11.2547	72.7895	27.602	26.8458	36.6975	37.1763	31.2923
12.0478	72.7895	27.602	4.08281	36.1787	37.0958	31.1188
12.8409	72.7895	27.602	-142.789	34.8375	36.8702	30.7728
13.634	72.7895	27.602	0	33.0468	36.2456	30.3378
14.4271	72.7895	27.602	0	31.1227	34.9516	29.5434
15.2202	72.7895	27.602	0	28.3662	32.3656	27.8275
16.0133	72.7895	27.602	0	20.4468	24.4939	20.8345
16.8064	72.7895	27.602	0	0	0	0
17.5995	72.7895	27.602	0	0	0	0
-5.39839	78.8046	29.6018	35.7438	0	0	0
-4.60529	78.8046	29.6018	36.1445	0	0	21.564
-3.81218	78.8046	29.6018	36.5262	0	0	22.9459
-3.01908	78.8046	29.6018	36.8925	0	23.9375	24.0309
-2.22598	78.8046	29.6018	37.2478	0	26.8035	24.882
-1.43287	78.8046	29.6018	37.587	0	29.0224	25.5713
-0.639771	78.8046	29.6018	37.8687	25.2072	30.6024	26.1679
0.153333	78.8046	29.6018	38.0612	27.727	31.785	26.6994
0.946436	78.8046	29.6018	38.1765	29.8024	32.6849	27.198
1.73954	78.8046	29.6018	38.2394	31.2326	33.3802	27.6634
2.53264	78.8046	29.6018	38.2691	32.3412	33.9066	28.1074
3.32575	78.8046	29.6018	38.274	33.1769	34.3684	28.5235
4.11885	78.8046	29.6018	38.2525	33.8055	34.8115	28.9331
4.91195	78.8046	29.6018	38.1977	34.3314	35.2076	29.2759
5.70506	78.8046	29.6018	38.1245	34.7845	35.5803	29.651
6.49816	78.8046	29.6018	38.0006	35.1988	35.9684	29.9789
7.29126	78.8046	29.6018	37.7584	35.5705	36.2989	30.2838
8.08437	78.8046	29.6018	37.3064	35.9835	36.6053	30.557
8.87747	78.8046	29.6018	36.4541	36.2995	36.8871	30.8019
9.67057	78.8046	29.6018	34.5974	36.5376	37.0127	30.9909
10.4637	78.8046	29.6018	31.3957	36.6716	37.0981	31.0875
11.2568	78.8046	29.6018	26.3764	36.6047	37.0821	31.022
12.0499	78.8046	29.6018	1.64503	36.0871	37.0016	30.8498
12.843	78.8046	29.6018	-157.451	34.7464	36.7755	30.5058
13.6361	78.8046	29.6018	0	32.9559	36.1527	30.0725
14.4292	78.8046	29.6018	0	31.032	34.8603	29.279
15.2223	78.8046	29.6018	0	28.2756	32.2746	27.5634
16.0154	78.8046	29.6018	0	20.3561	24.403	20.5707
16.8085	78.8046	29.6018	0	0	0	0
17.6016	78.8046	29.6018	0	0	0	0
-5.3963	85.3168	31.7481	35.6276	0	0	0
-4.60319	85.3168	31.7481	36.0273	0	0	21.3051
-3.81009	85.3168	31.7481	36.4084	0	0	22.6872
-3.01699	85.3168	31.7481	36.7741	0	23.8522	23.7726
-2.22388	85.3168	31.7481	37.1291	0	26.7178	24.6238
-1.43078	85.3168	31.7481	37.4667	0	28.9357	25.3129
-0.637676	85.3168	31.7481	37.7436	25.1215	30.5142	25.9094
0.155427	85.3168	31.7481	37.9314	27.6411	31.6964	26.4406
0.948531	85.3168	31.7481	38.0432	29.7152	32.596	26.9389
1.74163	85.3168	31.7481	38.1036	31.1443	33.291	27.4039
2.53474	85.3168	31.7481	38.1316	32.2527	33.8172	27.8473
3.32784	85.3168	31.7481	38.1349	33.088	34.2788	28.2628
4.12094	85.3168	31.7481	38.1114	33.7162	34.722	28.6719
4.91405	85.3168	31.7481	38.0543	34.2418	35.1183	29.0137
5.70715	85.3168	31.7481	37.9798	34.6948	35.4907	29.388
6.50026	85.3168	31.7481	37.8532	35.1092	35.8788	29.7149
7.29336	85.3168	31.7481	37.6057	35.4806	36.2088	30.0187
8.08646	85.3168	31.7481	37.1467	35.8938	36.514	30.2905
8.87957	85.3168	31.7481	36.2893	36.2096	36.7939	30.534
9.67267	85.3168	31.7481	34.4233	36.4471	36.9192	30.7215
10.4658	85.3168	31.7481	30.8964	36.5797	37.0036	30.8169
11.2589	85.3168	31.7481	25.8759	36.5114	36.9875	30.7514
12.052	85.3168	31.7481	-0.986649	35.9951	36.9068	30.5805
12.8451	85.3168	31.7481	-173.317	34.6548	36.6803	30.2387
13.6382	85.3168	31.7481	0	32.8646	36.0594	29.807
14.4313	85.3168	31.7481	0	30.9407	34.7684	29.0143
15.2244	85.3168	31.7481	0	28.1844	32.1831	27.2991
16.0175	85.3168	31.7481	0	20.265	24.3115	20.3068
16.8106	85.3168	31.7481	0	0	0	0
17.6037	85.3168	31.7481	0	0	0	0
-5.39422	92.3671	34.0518	35.5116	0	0	0
-4.60111	92.3671	34.0518	35.9102	0	0	21.0464
-3.80801	92.3671	34.0518	36.2905	0	0	22.4287
-3.0149	92.3671	34.0518	36.6557	0	23.7662	23.5143
-2.2218	92.3671	34.0518	37.0101	0	26.6315	24.3655
-1.4287	92.3671	34.0518	37.3462	0	28.8484	25.0546
-0.635595	92.3671	34.0518	37.6181	25.0351	30.4253	25.6509
0.157509	92.3671	34.0518	37.8013	27.5545	31.6072	26.1818
0.950612	92.3671	34.0518	37.9096	29.6273	32.5064	26.6798
1.74372	92.3671	34.0518	37.9677	31.0553	33.2011	27.1443
2.53682	92.3671	34.0518	37.994	32.1634	33.727	27.5872
3.32992	92.3671	34.0518	37.9955	32.9983	34.1886	28.0021
4.12303	92.3671	34.0518	37.9698	33.6261	34.6318	28.4106
4.91613	92.3671	34.0518	37.91	34.1515	35.0283	28.7513
5.70923	92.3671	34.0518	37.8336	34.6044	35.4005	29.1249
6.50234	92.3671	34.0518	37.7038	35.0189	35.7885	29.4508
7.29544	92.3671	34.0518	37.4502	35.39	36.1179	29.7534
8.08854	92.3671	34.0518	36.9832	35.8034	36.4219	30.0239
8.88165	92.3671	34.0518	36.1201	36.119	36.7001	30.2659
9.67475	92.3671	34.0518	34.2496	36.3559	36.8249	30.4519
10.4679	92.3671	34.0518	30.3731	36.4872	36.9084	30.546
11.261	92.3671	34.0518	25.3415	36.4174	36.8921	30.4807
12.0541	92.3671	34.0518	-3.82825	35.9023	36.8114	30.311
12.8472	92.3671	34.0518	-190.487	34.5625	36.5844	29.9713
13.6403	92.3671	34.0518	0	32.7725	35.9654	29.5414
14.4334	92.3671	34.0518	0	30.8488	34.6758	28.7496
15.2265	92.3671	34.0518	0	28.0926	32.0908	27.0349
16.0196	92.3671	34.0518	0	20.1731	24.2193	20.0429
16.8127	92.3671	34.0518	0	0	0	0
17.6058	92.3671	34.0518	0	0	0	0
-5.39215	100	36.5246	0	0	0	0
-4.59904	100	36.5246	0	0	0	0
-3.80594	100	36.5246	0	0	0	0
-3.01284	100	36.5246	0	0	0	0
-2.21973	100	36.5246	0	0	0	0
-1.42663	100	36.5246	0	0	0	0
-0.633526	100	36.5246	0	0	0	0
0.159577	100	36.5246	0	0	0	0
0.95268	100	36.5246	0	0	0	0
1.74578	100	36.5246	0	0	0	0
2.53889	100	36.5246	0	0	0	0
3.33199	100	36.5246	0	0	0	0
4.12509	100	36.5246	0	0	0	0
4.9182	100	36.5246	0	0	0	0
5.7113	100	36.5246	0	0	0	0
6.5044	100	36.5246	0	0	0	0
7.29751	100	36.5246	0	0	0	0
8.09061	100	36.5246	0	0	0	0
8.88371	100	36.5246	0	0	0	0
9.67682	100	36.5246	0	0	0	0
10.4699	100	36.5246	0	0	0	0
11.263	100	36.5246	0	0	0	0
12.0561	100	36.5246	0	0	0	0
12.8492	100	36.5246	0	0	0	0
13.6423	100	36.5246	0	0	0	0
14.4354	100	36.5246	0	0	0	0
15.2285	100	36.5246	0	0	0	0
16.0216	100	36.5246	0	0	0	0
16.8147	100	36.5246	0	0	0	0
17.6079	100	36.5246	0	0	0	0
