log(E / eV)	log(z / pc)	t / yr	 logQ
6	1	0	56.9633
6.37931	1	0	57.4451
6.75862	1	0	57.2106
7.13793	1	0	56.6714
7.51724	1	0	56.0045
7.89655	1	0	55.2842
8.27586	1	0	54.5415
8.65517	1	0	53.7896
9.03448	1	0	53.0338
9.41379	1	0	52.2763
9.7931	1	0	51.5181
10.1724	1	0	50.7598
10.5517	1	0	49.9988
10.931	1	0	49.2056
11.3103	1	0	48.3269
11.6897	1	0	47.3436
12.069	1	0	46.2794
12.4483	1	0	45.1644
12.8276	1	0	44.0144
13.2069	1	0	42.8281
13.5862	1	0	41.5867
13.9655	1	0	40.2462
14.3448	1	0	38.7135
14.7241	1	0	36.7659
15.1034	1	0	33.7759
15.4828	1	0	28.2107
15.8621	1	0	16.4693
16.2414	1	0	-10.0642
16.6207	1	0	-72.0252
17	1	0	-inf
6	1.0101	0.113921	57.4382
6.37931	1.0101	0.113921	57.6338
6.75862	1.0101	0.113921	57.3421
7.13793	1.0101	0.113921	56.7869
7.51724	1.0101	0.113921	56.1143
7.89655	1.0101	0.113921	55.3918
8.27586	1.0101	0.113921	54.6483
8.65517	1.0101	0.113921	53.896
9.03448	1.0101	0.113921	53.14
9.41379	1.0101	0.113921	52.381
9.7931	1.0101	0.113921	51.6049
10.1724	1.0101	0.113921	50.7698
10.5517	1.0101	0.113921	49.8385
10.931	1.0101	0.113921	48.8157
11.3103	1.0101	0.113921	47.7326
11.6897	1.0101	0.113921	46.6166
12.069	1.0101	0.113921	45.4826
12.4483	1.0101	0.113921	44.335
12.8276	1.0101	0.113921	43.1708
13.2069	1.0101	0.113921	41.9786
13.5862	1.0101	0.113921	40.7347
13.9655	1.0101	0.113921	39.3932
14.3448	1.0101	0.113921	37.8601
14.7241	1.0101	0.113921	35.9124
15.1034	1.0101	0.113921	32.9223
15.4828	1.0101	0.113921	27.3571
15.8621	1.0101	0.113921	15.6157
16.2414	1.0101	0.113921	-10.9178
16.6207	1.0101	0.113921	-72.8789
17	1.0101	0.113921	-inf
6	1.0202	0.142268	57.6661
6.37931	1.0202	0.142268	57.6641
6.75862	1.0202	0.142268	57.3181
7.13793	1.0202	0.142268	56.7465
7.51724	1.0202	0.142268	56.0681
7.89655	1.0202	0.142268	55.3433
8.27586	1.0202	0.142268	54.5989
8.65517	1.0202	0.142268	53.846
9.03448	1.0202	0.142268	53.0882
9.41379	1.0202	0.142268	52.3181
9.7931	1.0202	0.142268	51.507
10.1724	1.0202	0.142268	50.6147
10.5517	1.0202	0.142268	49.6276
10.931	1.0202	0.142268	48.5673
11.3103	1.0202	0.142268	47.4643
11.6897	1.0202	0.142268	46.3389
12.069	1.0202	0.142268	45.2008
12.4483	1.0202	0.142268	44.0515
12.8276	1.0202	0.142268	42.8866
13.2069	1.0202	0.142268	41.694
13.5862	1.0202	0.142268	40.45
13.9655	1.0202	0.142268	39.1084
14.3448	1.0202	0.142268	37.5754
14.7241	1.0202	0.142268	35.6276
15.1034	1.0202	0.142268	32.6375
15.4828	1.0202	0.142268	27.0723
15.8621	1.0202	0.142268	15.3309
16.2414	1.0202	0.142268	-11.2026
16.6207	1.0202	0.142268	-73.1636
17	1.0202	0.142268	-inf
6	1.0303	0.173977	57.8355
6.37931	1.0303	0.173977	57.7333
6.75862	1.0303	0.173977	57.3536
7.13793	1.0303	0.173977	56.7712
7.51724	1.0303	0.173977	56.0889
7.89655	1.0303	0.173977	55.3626
8.27586	1.0303	0.173977	54.6174
8.65517	1.0303	0.173977	53.8636
9.03448	1.0303	0.173977	53.1024
9.41379	1.0303	0.173977	52.3213
9.7931	1.0303	0.173977	51.4885
10.1724	1.0303	0.173977	50.5697
10.5517	1.0303	0.173977	49.5612
10.931	1.0303	0.173977	48.4881
11.3103	1.0303	0.173977	47.3786
11.6897	1.0303	0.173977	46.2504
12.069	1.0303	0.173977	45.111
12.4483	1.0303	0.173977	43.9612
12.8276	1.0303	0.173977	42.796
13.2069	1.0303	0.173977	41.6034
13.5862	1.0303	0.173977	40.3593
13.9655	1.0303	0.173977	39.0177
14.3448	1.0303	0.173977	37.4847
14.7241	1.0303	0.173977	35.5369
15.1034	1.0303	0.173977	32.5468
15.4828	1.0303	0.173977	26.9816
15.8621	1.0303	0.173977	15.2402
16.2414	1.0303	0.173977	-11.2933
16.6207	1.0303	0.173977	-73.2543
17	1.0303	0.173977	-inf
6	1.0404	0.196425	57.9367
6.37931	1.0404	0.196425	57.7621
6.75862	1.0404	0.196425	57.3552
7.13793	1.0404	0.196425	56.7635
7.51724	1.0404	0.196425	56.0778
7.89655	1.0404	0.196425	55.3501
8.27586	1.0404	0.196425	54.6041
8.65517	1.0404	0.196425	53.8489
9.03448	1.0404	0.196425	53.0835
9.41379	1.0404	0.196425	52.2925
9.7931	1.0404	0.196425	51.4437
10.1724	1.0404	0.196425	50.5079
10.5517	1.0404	0.196425	49.4868
10.931	1.0404	0.196425	48.4065
11.3103	1.0404	0.196425	47.2935
11.6897	1.0404	0.196425	46.1636
12.069	1.0404	0.196425	45.0236
12.4483	1.0404	0.196425	43.8735
12.8276	1.0404	0.196425	42.7082
13.2069	1.0404	0.196425	41.5155
13.5862	1.0404	0.196425	40.2714
13.9655	1.0404	0.196425	38.9298
14.3448	1.0404	0.196425	37.3968
14.7241	1.0404	0.196425	35.449
15.1034	1.0404	0.196425	32.4589
15.4828	1.0404	0.196425	26.8937
15.8621	1.0404	0.196425	15.1523
16.2414	1.0404	0.196425	-11.3812
16.6207	1.0404	0.196425	-73.3422
17	1.0404	0.196425	-inf
6	1.05051	0.217982	58.0071
6.37931	1.05051	0.217982	57.7844
6.75862	1.05051	0.217982	57.3577
7.13793	1.05051	0.217982	56.7592
7.51724	1.05051	0.217982	56.0709
7.89655	1.05051	0.217982	55.342
8.27586	1.05051	0.217982	54.5952
8.65517	1.05051	0.217982	53.8386
9.03448	1.05051	0.217982	53.0694
9.41379	1.05051	0.217982	52.2707
9.7931	1.05051	0.217982	51.4109
10.1724	1.05051	0.217982	50.4644
10.5517	1.05051	0.217982	49.4356
10.931	1.05051	0.217982	48.351
11.3103	1.05051	0.217982	47.2359
11.6897	1.05051	0.217982	46.1052
12.069	1.05051	0.217982	44.9647
12.4483	1.05051	0.217982	43.8145
12.8276	1.05051	0.217982	42.6491
13.2069	1.05051	0.217982	41.4564
13.5862	1.05051	0.217982	40.2123
13.9655	1.05051	0.217982	38.8707
14.3448	1.05051	0.217982	37.3377
14.7241	1.05051	0.217982	35.3899
15.1034	1.05051	0.217982	32.3998
15.4828	1.05051	0.217982	26.8346
15.8621	1.05051	0.217982	15.0932
16.2414	1.05051	0.217982	-11.4403
16.6207	1.05051	0.217982	-73.4013
17	1.05051	0.217982	-inf
6	1.06061	0.235869	58.0473
6.37931	1.06061	0.235869	57.7883
6.75862	1.06061	0.235869	57.3459
7.13793	1.06061	0.235869	56.7417
7.51724	1.06061	0.235869	56.0512
7.89655	1.06061	0.235869	55.3213
8.27586	1.06061	0.235869	54.5737
8.65517	1.06061	0.235869	53.8155
9.03448	1.06061	0.235869	53.043
9.41379	1.06061	0.235869	52.2382
9.7931	1.06061	0.235869	51.3703
10.1724	1.06061	0.235869	50.4163
10.5517	1.06061	0.235869	49.3823
10.931	1.06061	0.235869	48.2948
11.3103	1.06061	0.235869	47.1784
11.6897	1.06061	0.235869	46.0471
12.069	1.06061	0.235869	44.9064
12.4483	1.06061	0.235869	43.756
12.8276	1.06061	0.235869	42.5906
13.2069	1.06061	0.235869	41.3979
13.5862	1.06061	0.235869	40.1538
13.9655	1.06061	0.235869	38.8122
14.3448	1.06061	0.235869	37.2791
14.7241	1.06061	0.235869	35.3314
15.1034	1.06061	0.235869	32.3413
15.4828	1.06061	0.235869	26.7761
15.8621	1.06061	0.235869	15.0347
16.2414	1.06061	0.235869	-11.4988
16.6207	1.06061	0.235869	-73.4599
17	1.06061	0.235869	-inf
6	1.07071	0.252744	58.0719
6.37931	1.07071	0.252744	57.7862
6.75862	1.07071	0.252744	57.3317
7.13793	1.07071	0.252744	56.723
7.51724	1.07071	0.252744	56.0307
7.89655	1.07071	0.252744	55.3
8.27586	1.07071	0.252744	54.5516
8.65517	1.07071	0.252744	53.7921
9.03448	1.07071	0.252744	53.0167
9.41379	1.07071	0.252744	52.2071
9.7931	1.07071	0.252744	51.3332
10.1724	1.07071	0.252744	50.3738
10.5517	1.07071	0.252744	49.3362
10.931	1.07071	0.252744	48.2468
11.3103	1.07071	0.252744	47.1294
11.6897	1.07071	0.252744	45.9977
12.069	1.07071	0.252744	44.8568
12.4483	1.07071	0.252744	43.7064
12.8276	1.07071	0.252744	42.541
13.2069	1.07071	0.252744	41.3482
13.5862	1.07071	0.252744	40.1041
13.9655	1.07071	0.252744	38.7625
14.3448	1.07071	0.252744	37.2294
14.7241	1.07071	0.252744	35.2817
15.1034	1.07071	0.252744	32.2916
15.4828	1.07071	0.252744	26.7263
15.8621	1.07071	0.252744	14.985
16.2414	1.07071	0.252744	-11.5486
16.6207	1.07071	0.252744	-73.5096
17	1.07071	0.252744	-inf
6	1.08081	0.26817	58.0833
6.37931	1.08081	0.26817	57.7768
6.75862	1.08081	0.26817	57.3126
7.13793	1.08081	0.26817	56.7003
7.51724	1.08081	0.26817	56.0065
7.89655	1.08081	0.26817	55.2751
8.27586	1.08081	0.26817	54.526
8.65517	1.08081	0.26817	53.7652
9.03448	1.08081	0.26817	52.9874
9.41379	1.08081	0.26817	52.174
9.7931	1.08081	0.26817	51.2955
10.1724	1.08081	0.26817	50.3321
10.5517	1.08081	0.26817	49.2918
10.931	1.08081	0.26817	48.201
11.3103	1.08081	0.26817	47.083
11.6897	1.08081	0.26817	45.951
12.069	1.08081	0.26817	44.81
12.4483	1.08081	0.26817	43.6595
12.8276	1.08081	0.26817	42.494
13.2069	1.08081	0.26817	41.3012
13.5862	1.08081	0.26817	40.0572
13.9655	1.08081	0.26817	38.7156
14.3448	1.08081	0.26817	37.1825
14.7241	1.08081	0.26817	35.2347
15.1034	1.08081	0.26817	32.2446
15.4828	1.08081	0.26817	26.6794
15.8621	1.08081	0.26817	14.938
16.2414	1.08081	0.26817	-11.5955
16.6207	1.08081	0.26817	-73.5565
17	1.08081	0.26817	-inf
6	1.09091	0.282743	58.0861
6.37931	1.09091	0.282743	57.7633
6.75862	1.09091	0.282743	57.2913
7.13793	1.09091	0.282743	56.676
7.51724	1.09091	0.282743	55.981
7.89655	1.09091	0.282743	55.2489
8.27586	1.09091	0.282743	54.4992
8.65517	1.09091	0.282743	53.7373
9.03448	1.09091	0.282743	52.9575
9.41379	1.09091	0.282743	52.141
9.7931	1.09091	0.282743	51.259
10.1724	1.09091	0.282743	50.2924
10.5517	1.09091	0.282743	49.2501
10.931	1.09091	0.282743	48.1583
11.3103	1.09091	0.282743	47.0398
11.6897	1.09091	0.282743	45.9075
12.069	1.09091	0.282743	44.7664
12.4483	1.09091	0.282743	43.6159
12.8276	1.09091	0.282743	42.4504
13.2069	1.09091	0.282743	41.2576
13.5862	1.09091	0.282743	40.0136
13.9655	1.09091	0.282743	38.6719
14.3448	1.09091	0.282743	37.1389
14.7241	1.09091	0.282743	35.1911
15.1034	1.09091	0.282743	32.201
15.4828	1.09091	0.282743	26.6358
15.8621	1.09091	0.282743	14.8944
16.2414	1.09091	0.282743	-11.6391
16.6207	1.09091	0.282743	-73.6001
17	1.09091	0.282743	-inf
6	1.10101	0.29557	58.0784
6.37931	1.10101	0.29557	57.7422
6.75862	1.10101	0.29557	57.2636
7.13793	1.10101	0.29557	56.6457
7.51724	1.10101	0.29557	55.9497
7.89655	1.10101	0.29557	55.2171
8.27586	1.10101	0.29557	54.4668
8.65517	1.10101	0.29557	53.7039
9.03448	1.10101	0.29557	52.9224
9.41379	1.10101	0.29557	52.1033
9.7931	1.10101	0.29557	51.2184
10.1724	1.10101	0.29557	50.2495
10.5517	1.10101	0.29557	49.2057
10.931	1.10101	0.29557	48.113
11.3103	1.10101	0.29557	46.9941
11.6897	1.10101	0.29557	45.8617
12.069	1.10101	0.29557	44.7206
12.4483	1.10101	0.29557	43.57
12.8276	1.10101	0.29557	42.4045
13.2069	1.10101	0.29557	41.2117
13.5862	1.10101	0.29557	39.9677
13.9655	1.10101	0.29557	38.626
14.3448	1.10101	0.29557	37.093
14.7241	1.10101	0.29557	35.1452
15.1034	1.10101	0.29557	32.1551
15.4828	1.10101	0.29557	26.5899
15.8621	1.10101	0.29557	14.8485
16.2414	1.10101	0.29557	-11.685
16.6207	1.10101	0.29557	-73.646
17	1.10101	0.29557	-inf
6	1.11111	0.309608	58.073
6.37931	1.11111	0.309608	57.7265
6.75862	1.11111	0.309608	57.2428
7.13793	1.11111	0.309608	56.6229
7.51724	1.11111	0.309608	55.9261
7.89655	1.11111	0.309608	55.193
8.27586	1.11111	0.309608	54.4421
8.65517	1.11111	0.309608	53.6784
9.03448	1.11111	0.309608	52.8955
9.41379	1.11111	0.309608	52.0743
9.7931	1.11111	0.309608	51.187
10.1724	1.11111	0.309608	50.216
10.5517	1.11111	0.309608	49.1709
10.931	1.11111	0.309608	48.0775
11.3103	1.11111	0.309608	46.9583
11.6897	1.11111	0.309608	45.8257
12.069	1.11111	0.309608	44.6845
12.4483	1.11111	0.309608	43.534
12.8276	1.11111	0.309608	42.3685
13.2069	1.11111	0.309608	41.1757
13.5862	1.11111	0.309608	39.9316
13.9655	1.11111	0.309608	38.59
14.3448	1.11111	0.309608	37.0569
14.7241	1.11111	0.309608	35.1091
15.1034	1.11111	0.309608	32.119
15.4828	1.11111	0.309608	26.5538
15.8621	1.11111	0.309608	14.8124
16.2414	1.11111	0.309608	-11.7211
16.6207	1.11111	0.309608	-73.6821
17	1.11111	0.309608	-inf
6	1.12121	0.32246	58.0612
6.37931	1.12121	0.32246	57.706
6.75862	1.12121	0.32246	57.2179
7.13793	1.12121	0.32246	56.5962
7.51724	1.12121	0.32246	55.8987
7.89655	1.12121	0.32246	55.1651
8.27586	1.12121	0.32246	54.4139
8.65517	1.12121	0.32246	53.6494
9.03448	1.12121	0.32246	52.8652
9.41379	1.12121	0.32246	52.0422
9.7931	1.12121	0.32246	51.153
10.1724	1.12121	0.32246	50.1803
10.5517	1.12121	0.32246	49.1341
10.931	1.12121	0.32246	48.0401
11.3103	1.12121	0.32246	46.9206
11.6897	1.12121	0.32246	45.788
12.069	1.12121	0.32246	44.6467
12.4483	1.12121	0.32246	43.4961
12.8276	1.12121	0.32246	42.3306
13.2069	1.12121	0.32246	41.1378
13.5862	1.12121	0.32246	39.8937
13.9655	1.12121	0.32246	38.5521
14.3448	1.12121	0.32246	37.019
14.7241	1.12121	0.32246	35.0713
15.1034	1.12121	0.32246	32.0812
15.4828	1.12121	0.32246	26.516
15.8621	1.12121	0.32246	14.7746
16.2414	1.12121	0.32246	-11.759
16.6207	1.12121	0.32246	-73.72
17	1.12121	0.32246	-inf
6	1.13131	0.334319	58.0442
6.37931	1.13131	0.334319	57.6816
6.75862	1.13131	0.334319	57.1897
7.13793	1.13131	0.334319	56.5665
7.51724	1.13131	0.334319	55.8683
7.89655	1.13131	0.334319	55.1344
8.27586	1.13131	0.334319	54.3827
8.65517	1.13131	0.334319	53.6176
9.03448	1.13131	0.334319	52.8323
9.41379	1.13131	0.334319	52.0078
9.7931	1.13131	0.334319	51.1168
10.1724	1.13131	0.334319	50.1428
10.5517	1.13131	0.334319	49.0957
10.931	1.13131	0.334319	48.0013
11.3103	1.13131	0.334319	46.8816
11.6897	1.13131	0.334319	45.7488
12.069	1.13131	0.334319	44.6075
12.4483	1.13131	0.334319	43.4569
12.8276	1.13131	0.334319	42.2914
13.2069	1.13131	0.334319	41.0986
13.5862	1.13131	0.334319	39.8545
13.9655	1.13131	0.334319	38.5128
14.3448	1.13131	0.334319	36.9798
14.7241	1.13131	0.334319	35.032
15.1034	1.13131	0.334319	32.0419
15.4828	1.13131	0.334319	26.4767
15.8621	1.13131	0.334319	14.7353
16.2414	1.13131	0.334319	-11.7982
16.6207	1.13131	0.334319	-73.7592
17	1.13131	0.334319	-inf
6	1.14141	0.346653	58.0283
6.37931	1.14141	0.346653	57.6596
6.75862	1.14141	0.346653	57.1646
7.13793	1.14141	0.346653	56.5401
7.51724	1.14141	0.346653	55.8414
7.89655	1.14141	0.346653	55.1071
8.27586	1.14141	0.346653	54.3551
8.65517	1.14141	0.346653	53.5894
9.03448	1.14141	0.346653	52.8032
9.41379	1.14141	0.346653	51.9773
9.7931	1.14141	0.346653	51.0848
10.1724	1.14141	0.346653	50.1094
10.5517	1.14141	0.346653	49.0615
10.931	1.14141	0.346653	47.9666
11.3103	1.14141	0.346653	46.8467
11.6897	1.14141	0.346653	45.7139
12.069	1.14141	0.346653	44.5725
12.4483	1.14141	0.346653	43.4219
12.8276	1.14141	0.346653	42.2564
13.2069	1.14141	0.346653	41.0636
13.5862	1.14141	0.346653	39.8195
13.9655	1.14141	0.346653	38.4778
14.3448	1.14141	0.346653	36.9448
14.7241	1.14141	0.346653	34.997
15.1034	1.14141	0.346653	32.0069
15.4828	1.14141	0.346653	26.4417
15.8621	1.14141	0.346653	14.7003
16.2414	1.14141	0.346653	-11.8332
16.6207	1.14141	0.346653	-73.7942
17	1.14141	0.346653	-inf
6	1.15152	0.358272	58.009
6.37931	1.15152	0.358272	57.635
6.75862	1.15152	0.358272	57.1372
7.13793	1.15152	0.358272	56.5116
7.51724	1.15152	0.358272	55.8124
7.89655	1.15152	0.358272	55.0779
8.27586	1.15152	0.358272	54.3255
8.65517	1.15152	0.358272	53.5593
9.03448	1.15152	0.358272	52.7722
9.41379	1.15152	0.358272	51.9451
9.7931	1.15152	0.358272	51.0513
10.1724	1.15152	0.358272	50.0748
10.5517	1.15152	0.358272	49.0261
10.931	1.15152	0.358272	47.9309
11.3103	1.15152	0.358272	46.8108
11.6897	1.15152	0.358272	45.6778
12.069	1.15152	0.358272	44.5364
12.4483	1.15152	0.358272	43.3858
12.8276	1.15152	0.358272	42.2203
13.2069	1.15152	0.358272	41.0275
13.5862	1.15152	0.358272	39.7834
13.9655	1.15152	0.358272	38.4418
14.3448	1.15152	0.358272	36.9087
14.7241	1.15152	0.358272	34.9609
15.1034	1.15152	0.358272	31.9708
15.4828	1.15152	0.358272	26.4056
15.8621	1.15152	0.358272	14.6642
16.2414	1.15152	0.358272	-11.8693
16.6207	1.15152	0.358272	-73.8303
17	1.15152	0.358272	-inf
6	1.16162	0.370588	57.992
6.37931	1.16162	0.370588	57.6136
6.75862	1.16162	0.370588	57.1135
7.13793	1.16162	0.370588	56.487
7.51724	1.16162	0.370588	55.7874
7.89655	1.16162	0.370588	55.0526
8.27586	1.16162	0.370588	54.3
8.65517	1.16162	0.370588	53.5333
9.03448	1.16162	0.370588	52.7454
9.41379	1.16162	0.370588	51.9172
9.7931	1.16162	0.370588	51.022
10.1724	1.16162	0.370588	50.0444
10.5517	1.16162	0.370588	48.995
10.931	1.16162	0.370588	47.8994
11.3103	1.16162	0.370588	46.7791
11.6897	1.16162	0.370588	45.6461
12.069	1.16162	0.370588	44.5046
12.4483	1.16162	0.370588	43.354
12.8276	1.16162	0.370588	42.1885
13.2069	1.16162	0.370588	40.9957
13.5862	1.16162	0.370588	39.7516
13.9655	1.16162	0.370588	38.4099
14.3448	1.16162	0.370588	36.8769
14.7241	1.16162	0.370588	34.9291
15.1034	1.16162	0.370588	31.939
15.4828	1.16162	0.370588	26.3738
15.8621	1.16162	0.370588	14.6324
16.2414	1.16162	0.370588	-11.9011
16.6207	1.16162	0.370588	-73.8621
17	1.16162	0.370588	-inf
6	1.17172	0.381075	57.9674
6.37931	1.17172	0.381075	57.585
6.75862	1.17172	0.381075	57.0827
7.13793	1.17172	0.381075	56.4553
7.51724	1.17172	0.381075	55.7553
7.89655	1.17172	0.381075	55.0203
8.27586	1.17172	0.381075	54.2674
8.65517	1.17172	0.381075	53.5003
9.03448	1.17172	0.381075	52.7117
9.41379	1.17172	0.381075	51.8825
9.7931	1.17172	0.381075	50.9863
10.1724	1.17172	0.381075	50.0078
10.5517	1.17172	0.381075	48.9578
10.931	1.17172	0.381075	47.8618
11.3103	1.17172	0.381075	46.7414
11.6897	1.17172	0.381075	45.6083
12.069	1.17172	0.381075	44.4669
12.4483	1.17172	0.381075	43.3162
12.8276	1.17172	0.381075	42.1507
13.2069	1.17172	0.381075	40.9579
13.5862	1.17172	0.381075	39.7138
13.9655	1.17172	0.381075	38.3722
14.3448	1.17172	0.381075	36.8391
14.7241	1.17172	0.381075	34.8913
15.1034	1.17172	0.381075	31.9012
15.4828	1.17172	0.381075	26.336
15.8621	1.17172	0.381075	14.5946
16.2414	1.17172	0.381075	-11.9389
16.6207	1.17172	0.381075	-73.8999
17	1.17172	0.381075	-inf
6	1.18182	0.393716	57.9511
6.37931	1.18182	0.393716	57.5655
6.75862	1.18182	0.393716	57.0615
7.13793	1.18182	0.393716	56.4334
7.51724	1.18182	0.393716	55.7331
7.89655	1.18182	0.393716	54.9979
8.27586	1.18182	0.393716	54.2447
8.65517	1.18182	0.393716	53.4772
9.03448	1.18182	0.393716	52.6879
9.41379	1.18182	0.393716	51.8577
9.7931	1.18182	0.393716	50.9603
10.1724	1.18182	0.393716	49.9807
10.5517	1.18182	0.393716	48.93
10.931	1.18182	0.393716	47.8337
11.3103	1.18182	0.393716	46.7131
11.6897	1.18182	0.393716	45.5799
12.069	1.18182	0.393716	44.4384
12.4483	1.18182	0.393716	43.2878
12.8276	1.18182	0.393716	42.1222
13.2069	1.18182	0.393716	40.9294
13.5862	1.18182	0.393716	39.6853
13.9655	1.18182	0.393716	38.3437
14.3448	1.18182	0.393716	36.8106
14.7241	1.18182	0.393716	34.8629
15.1034	1.18182	0.393716	31.8728
15.4828	1.18182	0.393716	26.3076
15.8621	1.18182	0.393716	14.5662
16.2414	1.18182	0.393716	-11.9674
16.6207	1.18182	0.393716	-73.9284
17	1.18182	0.393716	-inf
6	1.19192	0.403376	57.9227
6.37931	1.19192	0.403376	57.5339
6.75862	1.19192	0.403376	57.0282
7.13793	1.19192	0.403376	56.3995
7.51724	1.19192	0.403376	55.6988
7.89655	1.19192	0.403376	54.9634
8.27586	1.19192	0.403376	54.21
8.65517	1.19192	0.403376	53.4421
9.03448	1.19192	0.403376	52.6523
9.41379	1.19192	0.403376	51.8213
9.7931	1.19192	0.403376	50.923
10.1724	1.19192	0.403376	49.9426
10.5517	1.19192	0.403376	48.8914
10.931	1.19192	0.403376	47.7948
11.3103	1.19192	0.403376	46.6741
11.6897	1.19192	0.403376	45.5409
12.069	1.19192	0.403376	44.3994
12.4483	1.19192	0.403376	43.2487
12.8276	1.19192	0.403376	42.0832
13.2069	1.19192	0.403376	40.8903
13.5862	1.19192	0.403376	39.6462
13.9655	1.19192	0.403376	38.3046
14.3448	1.19192	0.403376	36.7716
14.7241	1.19192	0.403376	34.8238
15.1034	1.19192	0.403376	31.8337
15.4828	1.19192	0.403376	26.2685
15.8621	1.19192	0.403376	14.5271
16.2414	1.19192	0.403376	-12.0064
16.6207	1.19192	0.403376	-73.9675
17	1.19192	0.403376	-inf
6	1.20202	0.416589	57.9082
6.37931	1.20202	0.416589	57.517
6.75862	1.20202	0.416589	57.0101
7.13793	1.20202	0.416589	56.3808
7.51724	1.20202	0.416589	55.6799
7.89655	1.20202	0.416589	54.9443
8.27586	1.20202	0.416589	54.1907
8.65517	1.20202	0.416589	53.4225
9.03448	1.20202	0.416589	52.632
9.41379	1.20202	0.416589	51.8
9.7931	1.20202	0.416589	50.9005
10.1724	1.20202	0.416589	49.9191
10.5517	1.20202	0.416589	48.8672
10.931	1.20202	0.416589	47.7702
11.3103	1.20202	0.416589	46.6492
11.6897	1.20202	0.416589	45.5159
12.069	1.20202	0.416589	44.3744
12.4483	1.20202	0.416589	43.2237
12.8276	1.20202	0.416589	42.0581
13.2069	1.20202	0.416589	40.8653
13.5862	1.20202	0.416589	39.6212
13.9655	1.20202	0.416589	38.2796
14.3448	1.20202	0.416589	36.7465
14.7241	1.20202	0.416589	34.7988
15.1034	1.20202	0.416589	31.8087
15.4828	1.20202	0.416589	26.2435
15.8621	1.20202	0.416589	14.5021
16.2414	1.20202	0.416589	-12.0314
16.6207	1.20202	0.416589	-73.9925
17	1.20202	0.416589	-inf
6	1.21212	0.425643	57.8771
6.37931	1.21212	0.425643	57.4833
6.75862	1.21212	0.425643	56.975
7.13793	1.21212	0.425643	56.3451
7.51724	1.21212	0.425643	55.6439
7.89655	1.21212	0.425643	54.9082
8.27586	1.21212	0.425643	54.1544
8.65517	1.21212	0.425643	53.3859
9.03448	1.21212	0.425643	52.5949
9.41379	1.21212	0.425643	51.7622
9.7931	1.21212	0.425643	50.862
10.1724	1.21212	0.425643	49.8799
10.5517	1.21212	0.425643	48.8275
10.931	1.21212	0.425643	47.7303
11.3103	1.21212	0.425643	46.6092
11.6897	1.21212	0.425643	45.4759
12.069	1.21212	0.425643	44.3343
12.4483	1.21212	0.425643	43.1836
12.8276	1.21212	0.425643	42.0181
13.2069	1.21212	0.425643	40.8252
13.5862	1.21212	0.425643	39.5811
13.9655	1.21212	0.425643	38.2395
14.3448	1.21212	0.425643	36.7065
14.7241	1.21212	0.425643	34.7587
15.1034	1.21212	0.425643	31.7686
15.4828	1.21212	0.425643	26.2034
15.8621	1.21212	0.425643	14.462
16.2414	1.21212	0.425643	-12.0715
16.6207	1.21212	0.425643	-74.0326
17	1.21212	0.425643	-inf
6	1.22222	0.438323	57.86
6.37931	1.22222	0.438323	57.4643
6.75862	1.22222	0.438323	56.9549
7.13793	1.22222	0.438323	56.3246
7.51724	1.22222	0.438323	55.6233
7.89655	1.22222	0.438323	54.8874
8.27586	1.22222	0.438323	54.1334
8.65517	1.22222	0.438323	53.3646
9.03448	1.22222	0.438323	52.573
9.41379	1.22222	0.438323	51.7395
9.7931	1.22222	0.438323	50.8381
10.1724	1.22222	0.438323	49.855
10.5517	1.22222	0.438323	48.8019
10.931	1.22222	0.438323	47.7043
11.3103	1.22222	0.438323	46.5831
11.6897	1.22222	0.438323	45.4496
12.069	1.22222	0.438323	44.3081
12.4483	1.22222	0.438323	43.1573
12.8276	1.22222	0.438323	41.9918
13.2069	1.22222	0.438323	40.7989
13.5862	1.22222	0.438323	39.5549
13.9655	1.22222	0.438323	38.2132
14.3448	1.22222	0.438323	36.6802
14.7241	1.22222	0.438323	34.7324
15.1034	1.22222	0.438323	31.7423
15.4828	1.22222	0.438323	26.1771
15.8621	1.22222	0.438323	14.4357
16.2414	1.22222	0.438323	-12.0978
16.6207	1.22222	0.438323	-74.0588
17	1.22222	0.438323	-inf
6	1.23232	0.449512	57.8369
6.37931	1.23232	0.449512	57.4393
6.75862	1.23232	0.449512	56.9289
7.13793	1.23232	0.449512	56.2982
7.51724	1.23232	0.449512	55.5966
7.89655	1.23232	0.449512	54.8606
8.27586	1.23232	0.449512	54.1064
8.65517	1.23232	0.449512	53.3373
9.03448	1.23232	0.449512	52.5453
9.41379	1.23232	0.449512	51.7109
9.7931	1.23232	0.449512	50.8086
10.1724	1.23232	0.449512	49.8246
10.5517	1.23232	0.449512	48.7709
10.931	1.23232	0.449512	47.673
11.3103	1.23232	0.449512	46.5516
11.6897	1.23232	0.449512	45.4181
12.069	1.23232	0.449512	44.2765
12.4483	1.23232	0.449512	43.1258
12.8276	1.23232	0.449512	41.9602
13.2069	1.23232	0.449512	40.7674
13.5862	1.23232	0.449512	39.5233
13.9655	1.23232	0.449512	38.1817
14.3448	1.23232	0.449512	36.6486
14.7241	1.23232	0.449512	34.7008
15.1034	1.23232	0.449512	31.7107
15.4828	1.23232	0.449512	26.1455
15.8621	1.23232	0.449512	14.4041
16.2414	1.23232	0.449512	-12.1294
16.6207	1.23232	0.449512	-74.0904
17	1.23232	0.449512	-inf
6	1.24242	0.460533	57.8128
6.37931	1.24242	0.460533	57.4135
6.75862	1.24242	0.460533	56.9022
7.13793	1.24242	0.460533	56.2711
7.51724	1.24242	0.460533	55.5693
7.89655	1.24242	0.460533	54.8332
8.27586	1.24242	0.460533	54.0789
8.65517	1.24242	0.460533	53.3095
9.03448	1.24242	0.460533	52.5169
9.41379	1.24242	0.460533	51.6818
9.7931	1.24242	0.460533	50.7786
10.1724	1.24242	0.460533	49.7937
10.5517	1.24242	0.460533	48.7395
10.931	1.24242	0.460533	47.6412
11.3103	1.24242	0.460533	46.5197
11.6897	1.24242	0.460533	45.3861
12.069	1.24242	0.460533	44.2445
12.4483	1.24242	0.460533	43.0937
12.8276	1.24242	0.460533	41.9282
13.2069	1.24242	0.460533	40.7353
13.5862	1.24242	0.460533	39.4912
13.9655	1.24242	0.460533	38.1496
14.3448	1.24242	0.460533	36.6166
14.7241	1.24242	0.460533	34.6688
15.1034	1.24242	0.460533	31.6787
15.4828	1.24242	0.460533	26.1135
15.8621	1.24242	0.460533	14.3721
16.2414	1.24242	0.460533	-12.1614
16.6207	1.24242	0.460533	-74.1225
17	1.24242	0.460533	-inf
6	1.25253	0.471416	57.7879
6.37931	1.25253	0.471416	57.387
6.75862	1.25253	0.471416	56.8749
7.13793	1.25253	0.471416	56.2434
7.51724	1.25253	0.471416	55.5415
7.89655	1.25253	0.471416	54.8052
8.27586	1.25253	0.471416	54.0508
8.65517	1.25253	0.471416	53.2811
9.03448	1.25253	0.471416	52.4881
9.41379	1.25253	0.471416	51.6522
9.7931	1.25253	0.471416	50.7481
10.1724	1.25253	0.471416	49.7624
10.5517	1.25253	0.471416	48.7076
10.931	1.25253	0.471416	47.609
11.3103	1.25253	0.471416	46.4873
11.6897	1.25253	0.471416	45.3537
12.069	1.25253	0.471416	44.212
12.4483	1.25253	0.471416	43.0613
12.8276	1.25253	0.471416	41.8957
13.2069	1.25253	0.471416	40.7029
13.5862	1.25253	0.471416	39.4588
13.9655	1.25253	0.471416	38.1171
14.3448	1.25253	0.471416	36.5841
14.7241	1.25253	0.471416	34.6363
15.1034	1.25253	0.471416	31.6462
15.4828	1.25253	0.471416	26.081
15.8621	1.25253	0.471416	14.3396
16.2414	1.25253	0.471416	-12.1939
16.6207	1.25253	0.471416	-74.1549
17	1.25253	0.471416	-inf
6	1.26263	0.483465	57.7671
6.37931	1.26263	0.483465	57.365
6.75862	1.26263	0.483465	56.8521
7.13793	1.26263	0.483465	56.2203
7.51724	1.26263	0.483465	55.5183
7.89655	1.26263	0.483465	54.7819
8.27586	1.26263	0.483465	54.0273
8.65517	1.26263	0.483465	53.2573
9.03448	1.26263	0.483465	52.4638
9.41379	1.26263	0.483465	51.6272
9.7931	1.26263	0.483465	50.722
10.1724	1.26263	0.483465	49.7354
10.5517	1.26263	0.483465	48.6799
10.931	1.26263	0.483465	47.5809
11.3103	1.26263	0.483465	46.4591
11.6897	1.26263	0.483465	45.3254
12.069	1.26263	0.483465	44.1837
12.4483	1.26263	0.483465	43.0329
12.8276	1.26263	0.483465	41.8673
13.2069	1.26263	0.483465	40.6745
13.5862	1.26263	0.483465	39.4304
13.9655	1.26263	0.483465	38.0888
14.3448	1.26263	0.483465	36.5557
14.7241	1.26263	0.483465	34.6079
15.1034	1.26263	0.483465	31.6179
15.4828	1.26263	0.483465	26.0526
15.8621	1.26263	0.483465	14.3112
16.2414	1.26263	0.483465	-12.2223
16.6207	1.26263	0.483465	-74.1833
17	1.26263	0.483465	-inf
6	1.27273	0.494151	57.7408
6.37931	1.27273	0.494151	57.3373
6.75862	1.27273	0.494151	56.8238
7.13793	1.27273	0.494151	56.1917
7.51724	1.27273	0.494151	55.4895
7.89655	1.27273	0.494151	54.753
8.27586	1.27273	0.494151	53.9983
8.65517	1.27273	0.494151	53.228
9.03448	1.27273	0.494151	52.4341
9.41379	1.27273	0.494151	51.5967
9.7931	1.27273	0.494151	50.6906
10.1724	1.27273	0.494151	49.7032
10.5517	1.27273	0.494151	48.6471
10.931	1.27273	0.494151	47.5479
11.3103	1.27273	0.494151	46.4259
11.6897	1.27273	0.494151	45.2921
12.069	1.27273	0.494151	44.1504
12.4483	1.27273	0.494151	42.9996
12.8276	1.27273	0.494151	41.834
13.2069	1.27273	0.494151	40.6412
13.5862	1.27273	0.494151	39.3971
13.9655	1.27273	0.494151	38.0555
14.3448	1.27273	0.494151	36.5224
14.7241	1.27273	0.494151	34.5746
15.1034	1.27273	0.494151	31.5846
15.4828	1.27273	0.494151	26.0193
15.8621	1.27273	0.494151	14.2779
16.2414	1.27273	0.494151	-12.2556
16.6207	1.27273	0.494151	-74.2166
17	1.27273	0.494151	-inf
6	1.28283	0.506048	57.7187
6.37931	1.28283	0.506048	57.3141
6.75862	1.28283	0.506048	56.7999
7.13793	1.28283	0.506048	56.1676
7.51724	1.28283	0.506048	55.4653
7.89655	1.28283	0.506048	54.7287
8.27586	1.28283	0.506048	53.9738
8.65517	1.28283	0.506048	53.2033
9.03448	1.28283	0.506048	52.4089
9.41379	1.28283	0.506048	51.5707
9.7931	1.28283	0.506048	50.6637
10.1724	1.28283	0.506048	49.6753
10.5517	1.28283	0.506048	48.6185
10.931	1.28283	0.506048	47.519
11.3103	1.28283	0.506048	46.3968
11.6897	1.28283	0.506048	45.263
12.069	1.28283	0.506048	44.1212
12.4483	1.28283	0.506048	42.9704
12.8276	1.28283	0.506048	41.8048
13.2069	1.28283	0.506048	40.612
13.5862	1.28283	0.506048	39.3679
13.9655	1.28283	0.506048	38.0263
14.3448	1.28283	0.506048	36.4932
14.7241	1.28283	0.506048	34.5454
15.1034	1.28283	0.506048	31.5553
15.4828	1.28283	0.506048	25.9901
15.8621	1.28283	0.506048	14.2487
16.2414	1.28283	0.506048	-12.2848
16.6207	1.28283	0.506048	-74.2458
17	1.28283	0.506048	-inf
6	1.29293	0.516632	57.6911
6.37931	1.29293	0.516632	57.2854
6.75862	1.29293	0.516632	56.7707
7.13793	1.29293	0.516632	56.1381
7.51724	1.29293	0.516632	55.4356
7.89655	1.29293	0.516632	54.6989
8.27586	1.29293	0.516632	53.9439
8.65517	1.29293	0.516632	53.1732
9.03448	1.29293	0.516632	52.3783
9.41379	1.29293	0.516632	51.5395
9.7931	1.29293	0.516632	50.6315
10.1724	1.29293	0.516632	49.6423
10.5517	1.29293	0.516632	48.585
10.931	1.29293	0.516632	47.4851
11.3103	1.29293	0.516632	46.3629
11.6897	1.29293	0.516632	45.229
12.069	1.29293	0.516632	44.0872
12.4483	1.29293	0.516632	42.9364
12.8276	1.29293	0.516632	41.7708
13.2069	1.29293	0.516632	40.5779
13.5862	1.29293	0.516632	39.3338
13.9655	1.29293	0.516632	37.9922
14.3448	1.29293	0.516632	36.4591
14.7241	1.29293	0.516632	34.5114
15.1034	1.29293	0.516632	31.5213
15.4828	1.29293	0.516632	25.956
15.8621	1.29293	0.516632	14.2147
16.2414	1.29293	0.516632	-12.3189
16.6207	1.29293	0.516632	-74.2799
17	1.29293	0.516632	-inf
6	1.30303	0.52973	57.6726
6.37931	1.30303	0.52973	57.2661
6.75862	1.30303	0.52973	56.7509
7.13793	1.30303	0.52973	56.1181
7.51724	1.30303	0.52973	55.4155
7.89655	1.30303	0.52973	54.6787
8.27586	1.30303	0.52973	53.9236
8.65517	1.30303	0.52973	53.1526
9.03448	1.30303	0.52973	52.3572
9.41379	1.30303	0.52973	51.5175
9.7931	1.30303	0.52973	50.6084
10.1724	1.30303	0.52973	49.6181
10.5517	1.30303	0.52973	48.5601
10.931	1.30303	0.52973	47.4599
11.3103	1.30303	0.52973	46.3374
11.6897	1.30303	0.52973	45.2034
12.069	1.30303	0.52973	44.0616
12.4483	1.30303	0.52973	42.9108
12.8276	1.30303	0.52973	41.7452
13.2069	1.30303	0.52973	40.5523
13.5862	1.30303	0.52973	39.3082
13.9655	1.30303	0.52973	37.9666
14.3448	1.30303	0.52973	36.4335
14.7241	1.30303	0.52973	34.4857
15.1034	1.30303	0.52973	31.4957
15.4828	1.30303	0.52973	25.9304
15.8621	1.30303	0.52973	14.189
16.2414	1.30303	0.52973	-12.3445
16.6207	1.30303	0.52973	-74.3055
17	1.30303	0.52973	-inf
6	1.31313	0.540287	57.644
6.37931	1.31313	0.540287	57.2365
6.75862	1.31313	0.540287	56.7207
7.13793	1.31313	0.540287	56.0877
7.51724	1.31313	0.540287	55.3851
7.89655	1.31313	0.540287	54.6482
8.27586	1.31313	0.540287	53.8929
8.65517	1.31313	0.540287	53.1217
9.03448	1.31313	0.540287	52.3258
9.41379	1.31313	0.540287	51.4855
9.7931	1.31313	0.540287	50.5755
10.1724	1.31313	0.540287	49.5844
10.5517	1.31313	0.540287	48.5259
10.931	1.31313	0.540287	47.4253
11.3103	1.31313	0.540287	46.3027
11.6897	1.31313	0.540287	45.1686
12.069	1.31313	0.540287	44.0268
12.4483	1.31313	0.540287	42.8759
12.8276	1.31313	0.540287	41.7103
13.2069	1.31313	0.540287	40.5175
13.5862	1.31313	0.540287	39.2734
13.9655	1.31313	0.540287	37.9317
14.3448	1.31313	0.540287	36.3987
14.7241	1.31313	0.540287	34.4509
15.1034	1.31313	0.540287	31.4608
15.4828	1.31313	0.540287	25.8956
15.8621	1.31313	0.540287	14.1542
16.2414	1.31313	0.540287	-12.3793
16.6207	1.31313	0.540287	-74.3403
17	1.31313	0.540287	-inf
6	1.32323	0.552123	57.6196
6.37931	1.32323	0.552123	57.2113
6.75862	1.32323	0.552123	56.6951
7.13793	1.32323	0.552123	56.0619
7.51724	1.32323	0.552123	55.3592
7.89655	1.32323	0.552123	54.6222
8.27586	1.32323	0.552123	53.8668
8.65517	1.32323	0.552123	53.0953
9.03448	1.32323	0.552123	52.299
9.41379	1.32323	0.552123	51.4579
9.7931	1.32323	0.552123	50.5469
10.1724	1.32323	0.552123	49.5549
10.5517	1.32323	0.552123	48.4957
10.931	1.32323	0.552123	47.3947
11.3103	1.32323	0.552123	46.272
11.6897	1.32323	0.552123	45.1378
12.069	1.32323	0.552123	43.9959
12.4483	1.32323	0.552123	42.8451
12.8276	1.32323	0.552123	41.6795
13.2069	1.32323	0.552123	40.4866
13.5862	1.32323	0.552123	39.2425
13.9655	1.32323	0.552123	37.9009
14.3448	1.32323	0.552123	36.3678
14.7241	1.32323	0.552123	34.4201
15.1034	1.32323	0.552123	31.43
15.4828	1.32323	0.552123	25.8648
15.8621	1.32323	0.552123	14.1234
16.2414	1.32323	0.552123	-12.4101
16.6207	1.32323	0.552123	-74.3712
17	1.32323	0.552123	-inf
6	1.33333	0.56525	57.5995
6.37931	1.33333	0.56525	57.1905
6.75862	1.33333	0.56525	56.674
7.13793	1.33333	0.56525	56.0406
7.51724	1.33333	0.56525	55.3377
7.89655	1.33333	0.56525	54.6007
8.27586	1.33333	0.56525	53.8451
8.65517	1.33333	0.56525	53.0734
9.03448	1.33333	0.56525	52.2766
9.41379	1.33333	0.56525	51.4346
9.7931	1.33333	0.56525	50.5226
10.1724	1.33333	0.56525	49.5294
10.5517	1.33333	0.56525	48.4695
10.931	1.33333	0.56525	47.3682
11.3103	1.33333	0.56525	46.2452
11.6897	1.33333	0.56525	45.111
12.069	1.33333	0.56525	43.9691
12.4483	1.33333	0.56525	42.8182
12.8276	1.33333	0.56525	41.6526
13.2069	1.33333	0.56525	40.4598
13.5862	1.33333	0.56525	39.2157
13.9655	1.33333	0.56525	37.874
14.3448	1.33333	0.56525	36.341
14.7241	1.33333	0.56525	34.3932
15.1034	1.33333	0.56525	31.4031
15.4828	1.33333	0.56525	25.8379
15.8621	1.33333	0.56525	14.0965
16.2414	1.33333	0.56525	-12.437
16.6207	1.33333	0.56525	-74.398
17	1.33333	0.56525	-inf
6	1.34343	0.575895	57.5694
6.37931	1.34343	0.575895	57.1596
6.75862	1.34343	0.575895	56.6426
7.13793	1.34343	0.575895	56.0091
7.51724	1.34343	0.575895	55.3061
7.89655	1.34343	0.575895	54.569
8.27586	1.34343	0.575895	53.8133
8.65517	1.34343	0.575895	53.0413
9.03448	1.34343	0.575895	52.2441
9.41379	1.34343	0.575895	51.4014
9.7931	1.34343	0.575895	50.4885
10.1724	1.34343	0.575895	49.4946
10.5517	1.34343	0.575895	48.4341
10.931	1.34343	0.575895	47.3324
11.3103	1.34343	0.575895	46.2093
11.6897	1.34343	0.575895	45.0751
12.069	1.34343	0.575895	43.9331
12.4483	1.34343	0.575895	42.7823
12.8276	1.34343	0.575895	41.6166
13.2069	1.34343	0.575895	40.4238
13.5862	1.34343	0.575895	39.1797
13.9655	1.34343	0.575895	37.838
14.3448	1.34343	0.575895	36.305
14.7241	1.34343	0.575895	34.3572
15.1034	1.34343	0.575895	31.3671
15.4828	1.34343	0.575895	25.8019
15.8621	1.34343	0.575895	14.0605
16.2414	1.34343	0.575895	-12.473
16.6207	1.34343	0.575895	-74.434
17	1.34343	0.575895	-inf
6	1.35354	0.589118	57.5483
6.37931	1.35354	0.589118	57.1379
6.75862	1.35354	0.589118	56.6206
7.13793	1.35354	0.589118	55.9869
7.51724	1.35354	0.589118	55.2839
7.89655	1.35354	0.589118	54.5467
8.27586	1.35354	0.589118	53.7909
8.65517	1.35354	0.589118	53.0186
9.03448	1.35354	0.589118	52.2209
9.41379	1.35354	0.589118	51.3774
9.7931	1.35354	0.589118	50.4633
10.1724	1.35354	0.589118	49.4683
10.5517	1.35354	0.589118	48.4071
10.931	1.35354	0.589118	47.305
11.3103	1.35354	0.589118	46.1818
11.6897	1.35354	0.589118	45.0474
12.069	1.35354	0.589118	43.9054
12.4483	1.35354	0.589118	42.7545
12.8276	1.35354	0.589118	41.5889
13.2069	1.35354	0.589118	40.3961
13.5862	1.35354	0.589118	39.152
13.9655	1.35354	0.589118	37.8103
14.3448	1.35354	0.589118	36.2773
14.7241	1.35354	0.589118	34.3295
15.1034	1.35354	0.589118	31.3394
15.4828	1.35354	0.589118	25.7742
15.8621	1.35354	0.589118	14.0328
16.2414	1.35354	0.589118	-12.5007
16.6207	1.35354	0.589118	-74.4618
17	1.35354	0.589118	-inf
6	1.36364	0.601152	57.5219
6.37931	1.36364	0.601152	57.1109
6.75862	1.36364	0.601152	56.5933
7.13793	1.36364	0.601152	55.9594
7.51724	1.36364	0.601152	55.2563
7.89655	1.36364	0.601152	54.519
8.27586	1.36364	0.601152	53.7631
8.65517	1.36364	0.601152	52.9906
9.03448	1.36364	0.601152	52.1924
9.41379	1.36364	0.601152	51.3481
9.7931	1.36364	0.601152	50.433
10.1724	1.36364	0.601152	49.4371
10.5517	1.36364	0.601152	48.3752
10.931	1.36364	0.601152	47.2728
11.3103	1.36364	0.601152	46.1494
11.6897	1.36364	0.601152	45.015
12.069	1.36364	0.601152	43.873
12.4483	1.36364	0.601152	42.7221
12.8276	1.36364	0.601152	41.5564
13.2069	1.36364	0.601152	40.3636
13.5862	1.36364	0.601152	39.1195
13.9655	1.36364	0.601152	37.7778
14.3448	1.36364	0.601152	36.2448
14.7241	1.36364	0.601152	34.297
15.1034	1.36364	0.601152	31.3069
15.4828	1.36364	0.601152	25.7417
15.8621	1.36364	0.601152	14.0003
16.2414	1.36364	0.601152	-12.5332
16.6207	1.36364	0.601152	-74.4942
17	1.36364	0.601152	-inf
6	1.37374	0.614529	57.4998
6.37931	1.37374	0.614529	57.0883
6.75862	1.37374	0.614529	56.5704
7.13793	1.37374	0.614529	55.9364
7.51724	1.37374	0.614529	55.2332
7.89655	1.37374	0.614529	54.4959
8.27586	1.37374	0.614529	53.7398
8.65517	1.37374	0.614529	52.967
9.03448	1.37374	0.614529	52.1683
9.41379	1.37374	0.614529	51.3231
9.7931	1.37374	0.614529	50.4069
10.1724	1.37374	0.614529	49.4099
10.5517	1.37374	0.614529	48.3473
10.931	1.37374	0.614529	47.2446
11.3103	1.37374	0.614529	46.1209
11.6897	1.37374	0.614529	44.9864
12.069	1.37374	0.614529	43.8444
12.4483	1.37374	0.614529	42.6935
12.8276	1.37374	0.614529	41.5278
13.2069	1.37374	0.614529	40.335
13.5862	1.37374	0.614529	39.0909
13.9655	1.37374	0.614529	37.7492
14.3448	1.37374	0.614529	36.2162
14.7241	1.37374	0.614529	34.2684
15.1034	1.37374	0.614529	31.2783
15.4828	1.37374	0.614529	25.7131
15.8621	1.37374	0.614529	13.9717
16.2414	1.37374	0.614529	-12.5618
16.6207	1.37374	0.614529	-74.5228
17	1.37374	0.614529	-inf
6	1.38384	0.626741	57.4724
6.37931	1.38384	0.626741	57.0604
6.75862	1.38384	0.626741	56.5421
7.13793	1.38384	0.626741	55.908
7.51724	1.38384	0.626741	55.2048
7.89655	1.38384	0.626741	54.4673
8.27586	1.38384	0.626741	53.7112
8.65517	1.38384	0.626741	52.9381
9.03448	1.38384	0.626741	52.1389
9.41379	1.38384	0.626741	51.293
9.7931	1.38384	0.626741	50.3758
10.1724	1.38384	0.626741	49.3778
10.5517	1.38384	0.626741	48.3145
10.931	1.38384	0.626741	47.2114
11.3103	1.38384	0.626741	46.0877
11.6897	1.38384	0.626741	44.9531
12.069	1.38384	0.626741	43.811
12.4483	1.38384	0.626741	42.6601
12.8276	1.38384	0.626741	41.4944
13.2069	1.38384	0.626741	40.3016
13.5862	1.38384	0.626741	39.0575
13.9655	1.38384	0.626741	37.7158
14.3448	1.38384	0.626741	36.1828
14.7241	1.38384	0.626741	34.235
15.1034	1.38384	0.626741	31.2449
15.4828	1.38384	0.626741	25.6797
15.8621	1.38384	0.626741	13.9383
16.2414	1.38384	0.626741	-12.5952
16.6207	1.38384	0.626741	-74.5562
17	1.38384	0.626741	-inf
6	1.39394	0.64032	57.4493
6.37931	1.39394	0.64032	57.0368
6.75862	1.39394	0.64032	56.5183
7.13793	1.39394	0.64032	55.8841
7.51724	1.39394	0.64032	55.1808
7.89655	1.39394	0.64032	54.4433
8.27586	1.39394	0.64032	53.6869
8.65517	1.39394	0.64032	52.9137
9.03448	1.39394	0.64032	52.1139
9.41379	1.39394	0.64032	51.2671
9.7931	1.39394	0.64032	50.3487
10.1724	1.39394	0.64032	49.3497
10.5517	1.39394	0.64032	48.2857
10.931	1.39394	0.64032	47.1822
11.3103	1.39394	0.64032	46.0583
11.6897	1.39394	0.64032	44.9236
12.069	1.39394	0.64032	43.7815
12.4483	1.39394	0.64032	42.6306
12.8276	1.39394	0.64032	41.4649
13.2069	1.39394	0.64032	40.272
13.5862	1.39394	0.64032	39.0279
13.9655	1.39394	0.64032	37.6863
14.3448	1.39394	0.64032	36.1532
14.7241	1.39394	0.64032	34.2055
15.1034	1.39394	0.64032	31.2154
15.4828	1.39394	0.64032	25.6501
15.8621	1.39394	0.64032	13.9088
16.2414	1.39394	0.64032	-12.6248
16.6207	1.39394	0.64032	-74.5858
17	1.39394	0.64032	-inf
6	1.40404	0.654019	57.4257
6.37931	1.40404	0.654019	57.0127
6.75862	1.40404	0.654019	56.494
7.13793	1.40404	0.654019	55.8596
7.51724	1.40404	0.654019	55.1563
7.89655	1.40404	0.654019	54.4187
8.27586	1.40404	0.654019	53.6622
8.65517	1.40404	0.654019	52.8887
9.03448	1.40404	0.654019	52.0884
9.41379	1.40404	0.654019	51.2407
9.7931	1.40404	0.654019	50.3212
10.1724	1.40404	0.654019	49.3211
10.5517	1.40404	0.654019	48.2564
10.931	1.40404	0.654019	47.1525
11.3103	1.40404	0.654019	46.0284
11.6897	1.40404	0.654019	44.8936
12.069	1.40404	0.654019	43.7515
12.4483	1.40404	0.654019	42.6005
12.8276	1.40404	0.654019	41.4349
13.2069	1.40404	0.654019	40.242
13.5862	1.40404	0.654019	38.9979
13.9655	1.40404	0.654019	37.6563
14.3448	1.40404	0.654019	36.1232
14.7241	1.40404	0.654019	34.1754
15.1034	1.40404	0.654019	31.1853
15.4828	1.40404	0.654019	25.6201
15.8621	1.40404	0.654019	13.8787
16.2414	1.40404	0.654019	-12.6548
16.6207	1.40404	0.654019	-74.6158
17	1.40404	0.654019	-inf
6	1.41414	0.667848	57.4015
6.37931	1.41414	0.667848	56.9881
6.75862	1.41414	0.667848	56.4692
7.13793	1.41414	0.667848	55.8347
7.51724	1.41414	0.667848	55.1313
7.89655	1.41414	0.667848	54.3936
8.27586	1.41414	0.667848	53.637
8.65517	1.41414	0.667848	52.8632
9.03448	1.41414	0.667848	52.0624
9.41379	1.41414	0.667848	51.2138
9.7931	1.41414	0.667848	50.2931
10.1724	1.41414	0.667848	49.292
10.5517	1.41414	0.667848	48.2265
10.931	1.41414	0.667848	47.1223
11.3103	1.41414	0.667848	45.998
11.6897	1.41414	0.667848	44.8632
12.069	1.41414	0.667848	43.721
12.4483	1.41414	0.667848	42.57
12.8276	1.41414	0.667848	41.4043
13.2069	1.41414	0.667848	40.2115
13.5862	1.41414	0.667848	38.9674
13.9655	1.41414	0.667848	37.6257
14.3448	1.41414	0.667848	36.0927
14.7241	1.41414	0.667848	34.1449
15.1034	1.41414	0.667848	31.1548
15.4828	1.41414	0.667848	25.5896
15.8621	1.41414	0.667848	13.8482
16.2414	1.41414	0.667848	-12.6853
16.6207	1.41414	0.667848	-74.6463
17	1.41414	0.667848	-inf
6	1.42424	0.680555	57.3719
6.37931	1.42424	0.680555	56.9581
6.75862	1.42424	0.680555	56.4389
7.13793	1.42424	0.680555	55.8043
7.51724	1.42424	0.680555	55.1008
7.89655	1.42424	0.680555	54.3631
8.27586	1.42424	0.680555	53.6064
8.65517	1.42424	0.680555	52.8323
9.03448	1.42424	0.680555	52.0311
9.41379	1.42424	0.680555	51.1816
9.7931	1.42424	0.680555	50.2599
10.1724	1.42424	0.680555	49.2577
10.5517	1.42424	0.680555	48.1917
10.931	1.42424	0.680555	47.0871
11.3103	1.42424	0.680555	45.9626
11.6897	1.42424	0.680555	44.8277
12.069	1.42424	0.680555	43.6855
12.4483	1.42424	0.680555	42.5345
12.8276	1.42424	0.680555	41.3688
13.2069	1.42424	0.680555	40.176
13.5862	1.42424	0.680555	38.9319
13.9655	1.42424	0.680555	37.5902
14.3448	1.42424	0.680555	36.0572
14.7241	1.42424	0.680555	34.1094
15.1034	1.42424	0.680555	31.1193
15.4828	1.42424	0.680555	25.5541
15.8621	1.42424	0.680555	13.8127
16.2414	1.42424	0.680555	-12.7208
16.6207	1.42424	0.680555	-74.6819
17	1.42424	0.680555	-inf
6	1.43434	0.695939	57.3514
6.37931	1.43434	0.695939	56.9373
6.75862	1.43434	0.695939	56.4179
7.13793	1.43434	0.695939	55.7832
7.51724	1.43434	0.695939	55.0797
7.89655	1.43434	0.695939	54.3419
8.27586	1.43434	0.695939	53.5851
8.65517	1.43434	0.695939	52.8107
9.03448	1.43434	0.695939	52.0088
9.41379	1.43434	0.695939	51.1584
9.7931	1.43434	0.695939	50.2354
10.1724	1.43434	0.695939	49.232
10.5517	1.43434	0.695939	48.1652
10.931	1.43434	0.695939	47.0602
11.3103	1.43434	0.695939	45.9355
11.6897	1.43434	0.695939	44.8005
12.069	1.43434	0.695939	43.6583
12.4483	1.43434	0.695939	42.5073
12.8276	1.43434	0.695939	41.3416
13.2069	1.43434	0.695939	40.1487
13.5862	1.43434	0.695939	38.9046
13.9655	1.43434	0.695939	37.563
14.3448	1.43434	0.695939	36.0299
14.7241	1.43434	0.695939	34.0821
15.1034	1.43434	0.695939	31.0921
15.4828	1.43434	0.695939	25.5268
15.8621	1.43434	0.695939	13.7854
16.2414	1.43434	0.695939	-12.7481
16.6207	1.43434	0.695939	-74.7091
17	1.43434	0.695939	-inf
6	1.44444	0.708957	57.3205
6.37931	1.44444	0.708957	56.906
6.75862	1.44444	0.708957	56.3864
7.13793	1.44444	0.708957	55.7516
7.51724	1.44444	0.708957	55.0481
7.89655	1.44444	0.708957	54.3102
8.27586	1.44444	0.708957	53.5532
8.65517	1.44444	0.708957	52.7786
9.03448	1.44444	0.708957	51.9762
9.41379	1.44444	0.708957	51.125
9.7931	1.44444	0.708957	50.2009
10.1724	1.44444	0.708957	49.1965
10.5517	1.44444	0.708957	48.1291
10.931	1.44444	0.708957	47.0237
11.3103	1.44444	0.708957	45.8988
11.6897	1.44444	0.708957	44.7638
12.069	1.44444	0.708957	43.6215
12.4483	1.44444	0.708957	42.4705
12.8276	1.44444	0.708957	41.3048
13.2069	1.44444	0.708957	40.112
13.5862	1.44444	0.708957	38.8679
13.9655	1.44444	0.708957	37.5262
14.3448	1.44444	0.708957	35.9932
14.7241	1.44444	0.708957	34.0454
15.1034	1.44444	0.708957	31.0553
15.4828	1.44444	0.708957	25.4901
15.8621	1.44444	0.708957	13.7487
16.2414	1.44444	0.708957	-12.7848
16.6207	1.44444	0.708957	-74.7459
17	1.44444	0.708957	-inf
6	1.45455	0.724678	57.2988
6.37931	1.45455	0.724678	56.884
6.75862	1.45455	0.724678	56.3642
7.13793	1.45455	0.724678	55.7294
7.51724	1.45455	0.724678	55.0258
7.89655	1.45455	0.724678	54.2878
8.27586	1.45455	0.724678	53.5307
8.65517	1.45455	0.724678	52.7558
9.03448	1.45455	0.724678	51.9528
9.41379	1.45455	0.724678	51.1006
9.7931	1.45455	0.724678	50.1752
10.1724	1.45455	0.724678	49.1697
10.5517	1.45455	0.724678	48.1014
10.931	1.45455	0.724678	46.9956
11.3103	1.45455	0.724678	45.8706
11.6897	1.45455	0.724678	44.7354
12.069	1.45455	0.724678	43.5931
12.4483	1.45455	0.724678	42.4421
12.8276	1.45455	0.724678	41.2764
13.2069	1.45455	0.724678	40.0835
13.5862	1.45455	0.724678	38.8394
13.9655	1.45455	0.724678	37.4978
14.3448	1.45455	0.724678	35.9647
14.7241	1.45455	0.724678	34.0169
15.1034	1.45455	0.724678	31.0269
15.4828	1.45455	0.724678	25.4616
15.8621	1.45455	0.724678	13.7202
16.2414	1.45455	0.724678	-12.8133
16.6207	1.45455	0.724678	-74.7743
17	1.45455	0.724678	-inf
6	1.46465	0.739314	57.2715
6.37931	1.46465	0.739314	56.8564
6.75862	1.46465	0.739314	56.3364
7.13793	1.46465	0.739314	55.7015
7.51724	1.46465	0.739314	54.9978
7.89655	1.46465	0.739314	54.2598
8.27586	1.46465	0.739314	53.5025
8.65517	1.46465	0.739314	52.7273
9.03448	1.46465	0.739314	51.9238
9.41379	1.46465	0.739314	51.0706
9.7931	1.46465	0.739314	50.144
10.1724	1.46465	0.739314	49.1374
10.5517	1.46465	0.739314	48.0684
10.931	1.46465	0.739314	46.9623
11.3103	1.46465	0.739314	45.8371
11.6897	1.46465	0.739314	44.7019
12.069	1.46465	0.739314	43.5595
12.4483	1.46465	0.739314	42.4085
12.8276	1.46465	0.739314	41.2428
13.2069	1.46465	0.739314	40.0499
13.5862	1.46465	0.739314	38.8058
13.9655	1.46465	0.739314	37.4641
14.3448	1.46465	0.739314	35.9311
14.7241	1.46465	0.739314	33.9833
15.1034	1.46465	0.739314	30.9932
15.4828	1.46465	0.739314	25.428
15.8621	1.46465	0.739314	13.6866
16.2414	1.46465	0.739314	-12.8469
16.6207	1.46465	0.739314	-74.8079
17	1.46465	0.739314	-inf
6	1.47475	0.755417	57.2485
6.37931	1.47475	0.755417	56.8331
6.75862	1.47475	0.755417	56.313
7.13793	1.47475	0.755417	55.678
7.51724	1.47475	0.755417	54.9742
7.89655	1.47475	0.755417	54.2361
8.27586	1.47475	0.755417	53.4787
8.65517	1.47475	0.755417	52.7032
9.03448	1.47475	0.755417	51.8991
9.41379	1.47475	0.755417	51.0449
9.7931	1.47475	0.755417	50.117
10.1724	1.47475	0.755417	49.1092
10.5517	1.47475	0.755417	48.0394
10.931	1.47475	0.755417	46.9328
11.3103	1.47475	0.755417	45.8074
11.6897	1.47475	0.755417	44.6722
12.069	1.47475	0.755417	43.5298
12.4483	1.47475	0.755417	42.3787
12.8276	1.47475	0.755417	41.213
13.2069	1.47475	0.755417	40.0201
13.5862	1.47475	0.755417	38.776
13.9655	1.47475	0.755417	37.4344
14.3448	1.47475	0.755417	35.9013
14.7241	1.47475	0.755417	33.9535
15.1034	1.47475	0.755417	30.9635
15.4828	1.47475	0.755417	25.3982
15.8621	1.47475	0.755417	13.6568
16.2414	1.47475	0.755417	-12.8767
16.6207	1.47475	0.755417	-74.8377
17	1.47475	0.755417	-inf
6	1.48485	0.770447	57.2196
6.37931	1.48485	0.770447	56.8039
6.75862	1.48485	0.770447	56.2836
7.13793	1.48485	0.770447	55.6486
7.51724	1.48485	0.770447	54.9448
7.89655	1.48485	0.770447	54.2066
8.27586	1.48485	0.770447	53.4491
8.65517	1.48485	0.770447	52.6733
9.03448	1.48485	0.770447	51.8686
9.41379	1.48485	0.770447	51.0134
9.7931	1.48485	0.770447	50.0843
10.1724	1.48485	0.770447	49.0754
10.5517	1.48485	0.770447	48.0049
10.931	1.48485	0.770447	46.898
11.3103	1.48485	0.770447	45.7724
11.6897	1.48485	0.770447	44.637
12.069	1.48485	0.770447	43.4946
12.4483	1.48485	0.770447	42.3436
12.8276	1.48485	0.770447	41.1778
13.2069	1.48485	0.770447	39.985
13.5862	1.48485	0.770447	38.7408
13.9655	1.48485	0.770447	37.3992
14.3448	1.48485	0.770447	35.8661
14.7241	1.48485	0.770447	33.9184
15.1034	1.48485	0.770447	30.9283
15.4828	1.48485	0.770447	25.3631
15.8621	1.48485	0.770447	13.6217
16.2414	1.48485	0.770447	-12.9118
16.6207	1.48485	0.770447	-74.8729
17	1.48485	0.770447	-inf
6	1.49495	0.78697	57.195
6.37931	1.49495	0.78697	56.7791
6.75862	1.49495	0.78697	56.2587
7.13793	1.49495	0.78697	55.6236
7.51724	1.49495	0.78697	54.9197
7.89655	1.49495	0.78697	54.1815
8.27586	1.49495	0.78697	53.4238
8.65517	1.49495	0.78697	52.6477
9.03448	1.49495	0.78697	51.8423
9.41379	1.49495	0.78697	50.9861
9.7931	1.49495	0.78697	50.0557
10.1724	1.49495	0.78697	49.0456
10.5517	1.49495	0.78697	47.9743
10.931	1.49495	0.78697	46.867
11.3103	1.49495	0.78697	45.7412
11.6897	1.49495	0.78697	44.6058
12.069	1.49495	0.78697	43.4634
12.4483	1.49495	0.78697	42.3123
12.8276	1.49495	0.78697	41.1466
13.2069	1.49495	0.78697	39.9537
13.5862	1.49495	0.78697	38.7096
13.9655	1.49495	0.78697	37.3679
14.3448	1.49495	0.78697	35.8348
14.7241	1.49495	0.78697	33.8871
15.1034	1.49495	0.78697	30.897
15.4828	1.49495	0.78697	25.3318
15.8621	1.49495	0.78697	13.5904
16.2414	1.49495	0.78697	-12.9431
16.6207	1.49495	0.78697	-74.9042
17	1.49495	0.78697	-inf
6	1.50505	0.802431	57.1644
6.37931	1.50505	0.802431	56.7482
6.75862	1.50505	0.802431	56.2276
7.13793	1.50505	0.802431	55.5924
7.51724	1.50505	0.802431	54.8885
7.89655	1.50505	0.802431	54.1502
8.27586	1.50505	0.802431	53.3923
8.65517	1.50505	0.802431	52.6159
9.03448	1.50505	0.802431	51.81
9.41379	1.50505	0.802431	50.9528
9.7931	1.50505	0.802431	50.0212
10.1724	1.50505	0.802431	49.01
10.5517	1.50505	0.802431	47.938
10.931	1.50505	0.802431	46.8303
11.3103	1.50505	0.802431	45.7044
11.6897	1.50505	0.802431	44.5689
12.069	1.50505	0.802431	43.4264
12.4483	1.50505	0.802431	42.2753
12.8276	1.50505	0.802431	41.1096
13.2069	1.50505	0.802431	39.9167
13.5862	1.50505	0.802431	38.6726
13.9655	1.50505	0.802431	37.3309
14.3448	1.50505	0.802431	35.7979
14.7241	1.50505	0.802431	33.8501
15.1034	1.50505	0.802431	30.86
15.4828	1.50505	0.802431	25.2948
15.8621	1.50505	0.802431	13.5534
16.2414	1.50505	0.802431	-12.9801
16.6207	1.50505	0.802431	-74.9412
17	1.50505	0.802431	-inf
6	1.51515	0.81941	57.138
6.37931	1.51515	0.81941	56.7216
6.75862	1.51515	0.81941	56.2009
7.13793	1.51515	0.81941	55.5656
7.51724	1.51515	0.81941	54.8616
7.89655	1.51515	0.81941	54.1233
8.27586	1.51515	0.81941	53.3653
8.65517	1.51515	0.81941	52.5885
9.03448	1.51515	0.81941	51.782
9.41379	1.51515	0.81941	50.9237
9.7931	1.51515	0.81941	49.9907
10.1724	1.51515	0.81941	48.9784
10.5517	1.51515	0.81941	47.9056
10.931	1.51515	0.81941	46.7975
11.3103	1.51515	0.81941	45.6714
11.6897	1.51515	0.81941	44.5358
12.069	1.51515	0.81941	43.3933
12.4483	1.51515	0.81941	42.2422
12.8276	1.51515	0.81941	41.0765
13.2069	1.51515	0.81941	39.8836
13.5862	1.51515	0.81941	38.6394
13.9655	1.51515	0.81941	37.2978
14.3448	1.51515	0.81941	35.7647
14.7241	1.51515	0.81941	33.817
15.1034	1.51515	0.81941	30.8269
15.4828	1.51515	0.81941	25.2617
15.8621	1.51515	0.81941	13.5203
16.2414	1.51515	0.81941	-13.0132
16.6207	1.51515	0.81941	-74.9743
17	1.51515	0.81941	-inf
6	1.52525	0.836635	57.1106
6.37931	1.52525	0.836635	56.694
6.75862	1.52525	0.836635	56.1732
7.13793	1.52525	0.836635	55.5378
7.51724	1.52525	0.836635	54.8338
7.89655	1.52525	0.836635	54.0954
8.27586	1.52525	0.836635	53.3372
8.65517	1.52525	0.836635	52.5602
9.03448	1.52525	0.836635	51.753
9.41379	1.52525	0.836635	50.8936
9.7931	1.52525	0.836635	49.9593
10.1724	1.52525	0.836635	48.9458
10.5517	1.52525	0.836635	47.8722
10.931	1.52525	0.836635	46.7637
11.3103	1.52525	0.836635	45.6374
11.6897	1.52525	0.836635	44.5018
12.069	1.52525	0.836635	43.3592
12.4483	1.52525	0.836635	42.2081
12.8276	1.52525	0.836635	41.0424
13.2069	1.52525	0.836635	39.8495
13.5862	1.52525	0.836635	38.6053
13.9655	1.52525	0.836635	37.2637
14.3448	1.52525	0.836635	35.7306
14.7241	1.52525	0.836635	33.7829
15.1034	1.52525	0.836635	30.7928
15.4828	1.52525	0.836635	25.2275
15.8621	1.52525	0.836635	13.4862
16.2414	1.52525	0.836635	-13.0474
16.6207	1.52525	0.836635	-75.0084
17	1.52525	0.836635	-inf
6	1.53535	0.854114	57.0822
6.37931	1.53535	0.854114	56.6653
6.75862	1.53535	0.854114	56.1444
7.13793	1.53535	0.854114	55.509
7.51724	1.53535	0.854114	54.8049
7.89655	1.53535	0.854114	54.0664
8.27586	1.53535	0.854114	53.3081
8.65517	1.53535	0.854114	52.5307
9.03448	1.53535	0.854114	51.7229
9.41379	1.53535	0.854114	50.8625
9.7931	1.53535	0.854114	49.9267
10.1724	1.53535	0.854114	48.912
10.5517	1.53535	0.854114	47.8378
10.931	1.53535	0.854114	46.7289
11.3103	1.53535	0.854114	45.6024
11.6897	1.53535	0.854114	44.4666
12.069	1.53535	0.854114	43.324
12.4483	1.53535	0.854114	42.1729
12.8276	1.53535	0.854114	41.0072
13.2069	1.53535	0.854114	39.8143
13.5862	1.53535	0.854114	38.5701
13.9655	1.53535	0.854114	37.2285
14.3448	1.53535	0.854114	35.6954
14.7241	1.53535	0.854114	33.7477
15.1034	1.53535	0.854114	30.7576
15.4828	1.53535	0.854114	25.1923
15.8621	1.53535	0.854114	13.451
16.2414	1.53535	0.854114	-13.0826
16.6207	1.53535	0.854114	-75.0436
17	1.53535	0.854114	-inf
6	1.54545	0.871856	57.0525
6.37931	1.54545	0.871856	56.6355
6.75862	1.54545	0.871856	56.1144
7.13793	1.54545	0.871856	55.479
7.51724	1.54545	0.871856	54.7749
7.89655	1.54545	0.871856	54.0363
8.27586	1.54545	0.871856	53.2778
8.65517	1.54545	0.871856	52.5001
9.03448	1.54545	0.871856	51.6916
9.41379	1.54545	0.871856	50.8301
9.7931	1.54545	0.871856	49.893
10.1724	1.54545	0.871856	48.8771
10.5517	1.54545	0.871856	47.8021
10.931	1.54545	0.871856	46.6928
11.3103	1.54545	0.871856	45.5661
11.6897	1.54545	0.871856	44.4303
12.069	1.54545	0.871856	43.2876
12.4483	1.54545	0.871856	42.1365
12.8276	1.54545	0.871856	40.9708
13.2069	1.54545	0.871856	39.7779
13.5862	1.54545	0.871856	38.5337
13.9655	1.54545	0.871856	37.1921
14.3448	1.54545	0.871856	35.659
14.7241	1.54545	0.871856	33.7112
15.1034	1.54545	0.871856	30.7212
15.4828	1.54545	0.871856	25.1559
15.8621	1.54545	0.871856	13.4145
16.2414	1.54545	0.871856	-13.119
16.6207	1.54545	0.871856	-75.08
17	1.54545	0.871856	-inf
6	1.55556	0.891189	57.0274
6.37931	1.55556	0.891189	56.6102
6.75862	1.55556	0.891189	56.0891
7.13793	1.55556	0.891189	55.4536
7.51724	1.55556	0.891189	54.7494
7.89655	1.55556	0.891189	54.0107
8.27586	1.55556	0.891189	53.2521
8.65517	1.55556	0.891189	52.474
9.03448	1.55556	0.891189	51.6648
9.41379	1.55556	0.891189	50.8021
9.7931	1.55556	0.891189	49.8635
10.1724	1.55556	0.891189	48.8464
10.5517	1.55556	0.891189	47.7705
10.931	1.55556	0.891189	46.6608
11.3103	1.55556	0.891189	45.534
11.6897	1.55556	0.891189	44.398
12.069	1.55556	0.891189	43.2554
12.4483	1.55556	0.891189	42.1042
12.8276	1.55556	0.891189	40.9385
13.2069	1.55556	0.891189	39.7456
13.5862	1.55556	0.891189	38.5014
13.9655	1.55556	0.891189	37.1598
14.3448	1.55556	0.891189	35.6267
14.7241	1.55556	0.891189	33.679
15.1034	1.55556	0.891189	30.6889
15.4828	1.55556	0.891189	25.1237
15.8621	1.55556	0.891189	13.3823
16.2414	1.55556	0.891189	-13.1513
16.6207	1.55556	0.891189	-75.1123
17	1.55556	0.891189	-inf
6	1.56566	0.909493	56.9951
6.37931	1.56566	0.909493	56.5777
6.75862	1.56566	0.909493	56.0565
7.13793	1.56566	0.909493	55.4209
7.51724	1.56566	0.909493	54.7167
7.89655	1.56566	0.909493	53.978
8.27586	1.56566	0.909493	53.2192
8.65517	1.56566	0.909493	52.4407
9.03448	1.56566	0.909493	51.6308
9.41379	1.56566	0.909493	50.767
9.7931	1.56566	0.909493	49.8271
10.1724	1.56566	0.909493	48.8087
10.5517	1.56566	0.909493	47.7321
10.931	1.56566	0.909493	46.622
11.3103	1.56566	0.909493	45.495
11.6897	1.56566	0.909493	44.359
12.069	1.56566	0.909493	43.2163
12.4483	1.56566	0.909493	42.0651
12.8276	1.56566	0.909493	40.8994
13.2069	1.56566	0.909493	39.7065
13.5862	1.56566	0.909493	38.4624
13.9655	1.56566	0.909493	37.1207
14.3448	1.56566	0.909493	35.5877
14.7241	1.56566	0.909493	33.6399
15.1034	1.56566	0.909493	30.6498
15.4828	1.56566	0.909493	25.0846
15.8621	1.56566	0.909493	13.3432
16.2414	1.56566	0.909493	-13.1903
16.6207	1.56566	0.909493	-75.1514
17	1.56566	0.909493	-inf
6	1.57576	0.929421	56.9674
6.37931	1.57576	0.929421	56.5498
6.75862	1.57576	0.929421	56.0285
7.13793	1.57576	0.929421	55.3929
7.51724	1.57576	0.929421	54.6886
7.89655	1.57576	0.929421	53.9498
8.27586	1.57576	0.929421	53.1908
8.65517	1.57576	0.929421	52.412
9.03448	1.57576	0.929421	51.6013
9.41379	1.57576	0.929421	50.7363
9.7931	1.57576	0.929421	49.795
10.1724	1.57576	0.929421	48.7753
10.5517	1.57576	0.929421	47.6979
10.931	1.57576	0.929421	46.5874
11.3103	1.57576	0.929421	45.4602
11.6897	1.57576	0.929421	44.3241
12.069	1.57576	0.929421	43.1814
12.4483	1.57576	0.929421	42.0302
12.8276	1.57576	0.929421	40.8645
13.2069	1.57576	0.929421	39.6716
13.5862	1.57576	0.929421	38.4274
13.9655	1.57576	0.929421	37.0858
14.3448	1.57576	0.929421	35.5527
14.7241	1.57576	0.929421	33.6049
15.1034	1.57576	0.929421	30.6149
15.4828	1.57576	0.929421	25.0496
15.8621	1.57576	0.929421	13.3082
16.2414	1.57576	0.929421	-13.2253
16.6207	1.57576	0.929421	-75.1863
17	1.57576	0.929421	-inf
6	1.58586	0.949666	56.9382
6.37931	1.58586	0.949666	56.5205
6.75862	1.58586	0.949666	55.999
7.13793	1.58586	0.949666	55.3634
7.51724	1.58586	0.949666	54.6591
7.89655	1.58586	0.949666	53.9202
8.27586	1.58586	0.949666	53.161
8.65517	1.58586	0.949666	52.3818
9.03448	1.58586	0.949666	51.5704
9.41379	1.58586	0.949666	50.7042
9.7931	1.58586	0.949666	49.7613
10.1724	1.58586	0.949666	48.7404
10.5517	1.58586	0.949666	47.6623
10.931	1.58586	0.949666	46.5513
11.3103	1.58586	0.949666	45.4239
11.6897	1.58586	0.949666	44.2878
12.069	1.58586	0.949666	43.145
12.4483	1.58586	0.949666	41.9938
12.8276	1.58586	0.949666	40.8281
13.2069	1.58586	0.949666	39.6351
13.5862	1.58586	0.949666	38.391
13.9655	1.58586	0.949666	37.0494
14.3448	1.58586	0.949666	35.5163
14.7241	1.58586	0.949666	33.5685
15.1034	1.58586	0.949666	30.5784
15.4828	1.58586	0.949666	25.0132
15.8621	1.58586	0.949666	13.2718
16.2414	1.58586	0.949666	-13.2617
16.6207	1.58586	0.949666	-75.2227
17	1.58586	0.949666	-inf
6	1.59596	0.968883	56.9006
6.37931	1.59596	0.968883	56.4828
6.75862	1.59596	0.968883	55.9612
7.13793	1.59596	0.968883	55.3256
7.51724	1.59596	0.968883	54.6212
7.89655	1.59596	0.968883	53.8822
8.27586	1.59596	0.968883	53.1229
8.65517	1.59596	0.968883	52.3433
9.03448	1.59596	0.968883	51.5312
9.41379	1.59596	0.968883	50.6638
9.7931	1.59596	0.968883	49.7196
10.1724	1.59596	0.968883	48.6975
10.5517	1.59596	0.968883	47.6186
10.931	1.59596	0.968883	46.5073
11.3103	1.59596	0.968883	45.3797
11.6897	1.59596	0.968883	44.2435
12.069	1.59596	0.968883	43.1007
12.4483	1.59596	0.968883	41.9495
12.8276	1.59596	0.968883	40.7837
13.2069	1.59596	0.968883	39.5908
13.5862	1.59596	0.968883	38.3467
13.9655	1.59596	0.968883	37.0051
14.3448	1.59596	0.968883	35.472
14.7241	1.59596	0.968883	33.5242
15.1034	1.59596	0.968883	30.5341
15.4828	1.59596	0.968883	24.9689
15.8621	1.59596	0.968883	13.2275
16.2414	1.59596	0.968883	-13.306
16.6207	1.59596	0.968883	-75.267
17	1.59596	0.968883	-inf
6	1.60606	0.991143	56.8746
6.37931	1.60606	0.991143	56.4566
6.75862	1.60606	0.991143	55.935
7.13793	1.60606	0.991143	55.2993
7.51724	1.60606	0.991143	54.5949
7.89655	1.60606	0.991143	53.8558
8.27586	1.60606	0.991143	53.0963
8.65517	1.60606	0.991143	52.3163
9.03448	1.60606	0.991143	51.5034
9.41379	1.60606	0.991143	50.6347
9.7931	1.60606	0.991143	49.6889
10.1724	1.60606	0.991143	48.6654
10.5517	1.60606	0.991143	47.5857
10.931	1.60606	0.991143	46.474
11.3103	1.60606	0.991143	45.3462
11.6897	1.60606	0.991143	44.2099
12.069	1.60606	0.991143	43.0671
12.4483	1.60606	0.991143	41.9158
12.8276	1.60606	0.991143	40.7501
13.2069	1.60606	0.991143	39.5571
13.5862	1.60606	0.991143	38.313
13.9655	1.60606	0.991143	36.9714
14.3448	1.60606	0.991143	35.4383
14.7241	1.60606	0.991143	33.4905
15.1034	1.60606	0.991143	30.5004
15.4828	1.60606	0.991143	24.9352
15.8621	1.60606	0.991143	13.1938
16.2414	1.60606	0.991143	-13.3397
16.6207	1.60606	0.991143	-75.3007
17	1.60606	0.991143	-inf
6	1.61616	1.0124	56.8397
6.37931	1.61616	1.0124	56.4216
6.75862	1.61616	1.0124	55.9
7.13793	1.61616	1.0124	55.2642
7.51724	1.61616	1.0124	54.5597
7.89655	1.61616	1.0124	53.8206
8.27586	1.61616	1.0124	53.0609
8.65517	1.61616	1.0124	52.2805
9.03448	1.61616	1.0124	51.4668
9.41379	1.61616	1.0124	50.5968
9.7931	1.61616	1.0124	49.6495
10.1724	1.61616	1.0124	48.6248
10.5517	1.61616	1.0124	47.5443
10.931	1.61616	1.0124	46.4322
11.3103	1.61616	1.0124	45.3043
11.6897	1.61616	1.0124	44.1679
12.069	1.61616	1.0124	43.025
12.4483	1.61616	1.0124	41.8738
12.8276	1.61616	1.0124	40.708
13.2069	1.61616	1.0124	39.5151
13.5862	1.61616	1.0124	38.2709
13.9655	1.61616	1.0124	36.9293
14.3448	1.61616	1.0124	35.3962
14.7241	1.61616	1.0124	33.4484
15.1034	1.61616	1.0124	30.4584
15.4828	1.61616	1.0124	24.8931
15.8621	1.61616	1.0124	13.1517
16.2414	1.61616	1.0124	-13.3818
16.6207	1.61616	1.0124	-75.3428
17	1.61616	1.0124	-inf
6	1.62626	1.034	56.8024
6.37931	1.62626	1.034	56.3842
6.75862	1.62626	1.034	55.8624
7.13793	1.62626	1.034	55.2266
7.51724	1.62626	1.034	54.5221
7.89655	1.62626	1.034	53.7829
8.27586	1.62626	1.034	53.023
8.65517	1.62626	1.034	52.2422
9.03448	1.62626	1.034	51.4277
9.41379	1.62626	1.034	50.5565
9.7931	1.62626	1.034	49.6077
10.1724	1.62626	1.034	48.5818
10.5517	1.62626	1.034	47.5005
10.931	1.62626	1.034	46.388
11.3103	1.62626	1.034	45.2599
11.6897	1.62626	1.034	44.1234
12.069	1.62626	1.034	42.9805
12.4483	1.62626	1.034	41.8292
12.8276	1.62626	1.034	40.6634
13.2069	1.62626	1.034	39.4705
13.5862	1.62626	1.034	38.2264
13.9655	1.62626	1.034	36.8848
14.3448	1.62626	1.034	35.3517
14.7241	1.62626	1.034	33.4039
15.1034	1.62626	1.034	30.4138
15.4828	1.62626	1.034	24.8486
15.8621	1.62626	1.034	13.1072
16.2414	1.62626	1.034	-13.4263
16.6207	1.62626	1.034	-75.3873
17	1.62626	1.034	-inf
6	1.63636	1.05737	56.7702
6.37931	1.63636	1.05737	56.3519
6.75862	1.63636	1.05737	55.8301
7.13793	1.63636	1.05737	55.1942
7.51724	1.63636	1.05737	54.4897
7.89655	1.63636	1.05737	53.7503
8.27586	1.63636	1.05737	52.9902
8.65517	1.63636	1.05737	52.209
9.03448	1.63636	1.05737	51.3937
9.41379	1.63636	1.05737	50.5211
9.7931	1.63636	1.05737	49.5707
10.1724	1.63636	1.05737	48.5434
10.5517	1.63636	1.05737	47.4613
10.931	1.63636	1.05737	46.3484
11.3103	1.63636	1.05737	45.2201
11.6897	1.63636	1.05737	44.0836
12.069	1.63636	1.05737	42.9407
12.4483	1.63636	1.05737	41.7894
12.8276	1.63636	1.05737	40.6236
13.2069	1.63636	1.05737	39.4307
13.5862	1.63636	1.05737	38.1865
13.9655	1.63636	1.05737	36.8449
14.3448	1.63636	1.05737	35.3118
14.7241	1.63636	1.05737	33.364
15.1034	1.63636	1.05737	30.374
15.4828	1.63636	1.05737	24.8087
15.8621	1.63636	1.05737	13.0673
16.2414	1.63636	1.05737	-13.4662
16.6207	1.63636	1.05737	-75.4272
17	1.63636	1.05737	-inf
6	1.64646	1.08115	56.7355
6.37931	1.64646	1.08115	56.3171
6.75862	1.64646	1.08115	55.7952
7.13793	1.64646	1.08115	55.1593
7.51724	1.64646	1.08115	54.4547
7.89655	1.64646	1.08115	53.7153
8.27586	1.64646	1.08115	52.955
8.65517	1.64646	1.08115	52.1733
9.03448	1.64646	1.08115	51.3571
9.41379	1.64646	1.08115	50.4832
9.7931	1.64646	1.08115	49.5312
10.1724	1.64646	1.08115	48.5026
10.5517	1.64646	1.08115	47.4197
10.931	1.64646	1.08115	46.3064
11.3103	1.64646	1.08115	45.1779
11.6897	1.64646	1.08115	44.0413
12.069	1.64646	1.08115	42.8983
12.4483	1.64646	1.08115	41.747
12.8276	1.64646	1.08115	40.5812
13.2069	1.64646	1.08115	39.3883
13.5862	1.64646	1.08115	38.1442
13.9655	1.64646	1.08115	36.8025
14.3448	1.64646	1.08115	35.2695
14.7241	1.64646	1.08115	33.3217
15.1034	1.64646	1.08115	30.3316
15.4828	1.64646	1.08115	24.7664
15.8621	1.64646	1.08115	13.025
16.2414	1.64646	1.08115	-13.5085
16.6207	1.64646	1.08115	-75.4696
17	1.64646	1.08115	-inf
6	1.65657	1.10533	56.698
6.37931	1.65657	1.10533	56.2794
6.75862	1.65657	1.10533	55.7575
7.13793	1.65657	1.10533	55.1215
7.51724	1.65657	1.10533	54.4169
7.89655	1.65657	1.10533	53.6774
8.27586	1.65657	1.10533	52.9169
8.65517	1.65657	1.10533	52.1347
9.03448	1.65657	1.10533	51.3177
9.41379	1.65657	1.10533	50.4424
9.7931	1.65657	1.10533	49.4888
10.1724	1.65657	1.10533	48.4589
10.5517	1.65657	1.10533	47.3752
10.931	1.65657	1.10533	46.2615
11.3103	1.65657	1.10533	45.1328
11.6897	1.65657	1.10533	43.9961
12.069	1.65657	1.10533	42.8531
12.4483	1.65657	1.10533	41.7018
12.8276	1.65657	1.10533	40.536
13.2069	1.65657	1.10533	39.3431
13.5862	1.65657	1.10533	38.0989
13.9655	1.65657	1.10533	36.7573
14.3448	1.65657	1.10533	35.2242
14.7241	1.65657	1.10533	33.2764
15.1034	1.65657	1.10533	30.2864
15.4828	1.65657	1.10533	24.7211
15.8621	1.65657	1.10533	12.9797
16.2414	1.65657	1.10533	-13.5538
16.6207	1.65657	1.10533	-75.5148
17	1.65657	1.10533	-inf
6	1.66667	1.13138	56.6664
6.37931	1.66667	1.13138	56.2478
6.75862	1.66667	1.13138	55.7258
7.13793	1.66667	1.13138	55.0898
7.51724	1.66667	1.13138	54.3851
7.89655	1.66667	1.13138	53.6455
8.27586	1.66667	1.13138	52.8847
8.65517	1.66667	1.13138	52.1021
9.03448	1.66667	1.13138	51.2842
9.41379	1.66667	1.13138	50.4074
9.7931	1.66667	1.13138	49.4521
10.1724	1.66667	1.13138	48.4208
10.5517	1.66667	1.13138	47.3363
10.931	1.66667	1.13138	46.2222
11.3103	1.66667	1.13138	45.0933
11.6897	1.66667	1.13138	43.9565
12.069	1.66667	1.13138	42.8135
12.4483	1.66667	1.13138	41.6622
12.8276	1.66667	1.13138	40.4963
13.2069	1.66667	1.13138	39.3034
13.5862	1.66667	1.13138	38.0593
13.9655	1.66667	1.13138	36.7176
14.3448	1.66667	1.13138	35.1846
14.7241	1.66667	1.13138	33.2368
15.1034	1.66667	1.13138	30.2467
15.4828	1.66667	1.13138	24.6815
15.8621	1.66667	1.13138	12.9401
16.2414	1.66667	1.13138	-13.5934
16.6207	1.66667	1.13138	-75.5544
17	1.66667	1.13138	-inf
6	1.67677	1.15643	56.622
6.37931	1.67677	1.15643	56.2033
6.75862	1.67677	1.15643	55.6812
7.13793	1.67677	1.15643	55.0452
7.51724	1.67677	1.15643	54.3405
7.89655	1.67677	1.15643	53.6008
8.27586	1.67677	1.15643	52.8398
8.65517	1.67677	1.15643	52.0568
9.03448	1.67677	1.15643	51.2379
9.41379	1.67677	1.15643	50.3597
9.7931	1.67677	1.15643	49.4028
10.1724	1.67677	1.15643	48.3703
10.5517	1.67677	1.15643	47.2849
10.931	1.67677	1.15643	46.1704
11.3103	1.67677	1.15643	45.0414
11.6897	1.67677	1.15643	43.9045
12.069	1.67677	1.15643	42.7615
12.4483	1.67677	1.15643	41.6101
12.8276	1.67677	1.15643	40.4443
13.2069	1.67677	1.15643	39.2514
13.5862	1.67677	1.15643	38.0072
13.9655	1.67677	1.15643	36.6656
14.3448	1.67677	1.15643	35.1325
14.7241	1.67677	1.15643	33.1847
15.1034	1.67677	1.15643	30.1947
15.4828	1.67677	1.15643	24.6294
15.8621	1.67677	1.15643	12.888
16.2414	1.67677	1.15643	-13.6455
16.6207	1.67677	1.15643	-75.6065
17	1.67677	1.15643	-inf
6	1.68687	1.18341	56.5837
6.37931	1.68687	1.18341	56.1649
6.75862	1.68687	1.18341	55.6428
7.13793	1.68687	1.18341	55.0067
7.51724	1.68687	1.18341	54.3019
7.89655	1.68687	1.18341	53.5621
8.27586	1.68687	1.18341	52.8009
8.65517	1.68687	1.18341	52.0174
9.03448	1.68687	1.18341	51.1975
9.41379	1.68687	1.18341	50.3179
9.7931	1.68687	1.18341	49.3593
10.1724	1.68687	1.18341	48.3254
10.5517	1.68687	1.18341	47.2392
10.931	1.68687	1.18341	46.1243
11.3103	1.68687	1.18341	44.9951
11.6897	1.68687	1.18341	43.8581
12.069	1.68687	1.18341	42.715
12.4483	1.68687	1.18341	41.5637
12.8276	1.68687	1.18341	40.3979
13.2069	1.68687	1.18341	39.2049
13.5862	1.68687	1.18341	37.9608
13.9655	1.68687	1.18341	36.6191
14.3448	1.68687	1.18341	35.0861
14.7241	1.68687	1.18341	33.1383
15.1034	1.68687	1.18341	30.1482
15.4828	1.68687	1.18341	24.583
15.8621	1.68687	1.18341	12.8416
16.2414	1.68687	1.18341	-13.6919
16.6207	1.68687	1.18341	-75.6529
17	1.68687	1.18341	-inf
6	1.69697	1.21088	56.5413
6.37931	1.69697	1.21088	56.1224
6.75862	1.69697	1.21088	55.6002
7.13793	1.69697	1.21088	54.9641
7.51724	1.69697	1.21088	54.2593
7.89655	1.69697	1.21088	53.5193
8.27586	1.69697	1.21088	52.7579
8.65517	1.69697	1.21088	51.9739
9.03448	1.69697	1.21088	51.1531
9.41379	1.69697	1.21088	50.2719
9.7931	1.69697	1.21088	49.3116
10.1724	1.69697	1.21088	48.2764
10.5517	1.69697	1.21088	47.1894
10.931	1.69697	1.21088	46.0741
11.3103	1.69697	1.21088	44.9447
11.6897	1.69697	1.21088	43.8077
12.069	1.69697	1.21088	42.6645
12.4483	1.69697	1.21088	41.5132
12.8276	1.69697	1.21088	40.3473
13.2069	1.69697	1.21088	39.1544
13.5862	1.69697	1.21088	37.9103
13.9655	1.69697	1.21088	36.5686
14.3448	1.69697	1.21088	35.0356
14.7241	1.69697	1.21088	33.0878
15.1034	1.69697	1.21088	30.0977
15.4828	1.69697	1.21088	24.5325
15.8621	1.69697	1.21088	12.7911
16.2414	1.69697	1.21088	-13.7424
16.6207	1.69697	1.21088	-75.7035
17	1.69697	1.21088	-inf
6	1.70707	1.23884	56.4939
6.37931	1.70707	1.23884	56.0749
6.75862	1.70707	1.23884	55.5527
7.13793	1.70707	1.23884	54.9165
7.51724	1.70707	1.23884	54.2117
7.89655	1.70707	1.23884	53.4716
8.27586	1.70707	1.23884	52.71
8.65517	1.70707	1.23884	51.9254
9.03448	1.70707	1.23884	51.1036
9.41379	1.70707	1.23884	50.221
9.7931	1.70707	1.23884	49.259
10.1724	1.70707	1.23884	48.2224
10.5517	1.70707	1.23884	47.1346
10.931	1.70707	1.23884	46.0189
11.3103	1.70707	1.23884	44.8893
11.6897	1.70707	1.23884	43.7522
12.069	1.70707	1.23884	42.6091
12.4483	1.70707	1.23884	41.4577
12.8276	1.70707	1.23884	40.2918
13.2069	1.70707	1.23884	39.0989
13.5862	1.70707	1.23884	37.8548
13.9655	1.70707	1.23884	36.5131
14.3448	1.70707	1.23884	34.9801
14.7241	1.70707	1.23884	33.0323
15.1034	1.70707	1.23884	30.0422
15.4828	1.70707	1.23884	24.477
15.8621	1.70707	1.23884	12.7356
16.2414	1.70707	1.23884	-13.7979
16.6207	1.70707	1.23884	-75.759
17	1.70707	1.23884	-inf
6	1.71717	1.26887	56.4542
6.37931	1.71717	1.26887	56.0352
6.75862	1.71717	1.26887	55.5129
7.13793	1.71717	1.26887	54.8768
7.51724	1.71717	1.26887	54.1718
7.89655	1.71717	1.26887	53.4317
8.27586	1.71717	1.26887	52.6698
8.65517	1.71717	1.26887	51.8847
9.03448	1.71717	1.26887	51.0618
9.41379	1.71717	1.26887	50.1776
9.7931	1.71717	1.26887	49.2138
10.1724	1.71717	1.26887	48.1758
10.5517	1.71717	1.26887	47.0872
10.931	1.71717	1.26887	45.9711
11.3103	1.71717	1.26887	44.8413
11.6897	1.71717	1.26887	43.7041
12.069	1.71717	1.26887	42.5609
12.4483	1.71717	1.26887	41.4095
12.8276	1.71717	1.26887	40.2437
13.2069	1.71717	1.26887	39.0507
13.5862	1.71717	1.26887	37.8066
13.9655	1.71717	1.26887	36.465
14.3448	1.71717	1.26887	34.9319
14.7241	1.71717	1.26887	32.9841
15.1034	1.71717	1.26887	29.994
15.4828	1.71717	1.26887	24.4288
15.8621	1.71717	1.26887	12.6874
16.2414	1.71717	1.26887	-13.8461
16.6207	1.71717	1.26887	-75.8071
17	1.71717	1.26887	-inf
6	1.72727	1.29789	56.3943
6.37931	1.72727	1.29789	55.9752
6.75862	1.72727	1.29789	55.4529
7.13793	1.72727	1.29789	54.8167
7.51724	1.72727	1.29789	54.1117
7.89655	1.72727	1.29789	53.3714
8.27586	1.72727	1.29789	52.6093
8.65517	1.72727	1.29789	51.8237
9.03448	1.72727	1.29789	50.9998
9.41379	1.72727	1.29789	50.114
9.7931	1.72727	1.29789	49.1485
10.1724	1.72727	1.29789	48.1092
10.5517	1.72727	1.29789	47.0199
10.931	1.72727	1.29789	45.9033
11.3103	1.72727	1.29789	44.7734
11.6897	1.72727	1.29789	43.6362
12.069	1.72727	1.29789	42.4929
12.4483	1.72727	1.29789	41.3415
12.8276	1.72727	1.29789	40.1757
13.2069	1.72727	1.29789	38.9827
13.5862	1.72727	1.29789	37.7386
13.9655	1.72727	1.29789	36.397
14.3448	1.72727	1.29789	34.8639
14.7241	1.72727	1.29789	32.9161
15.1034	1.72727	1.29789	29.926
15.4828	1.72727	1.29789	24.3608
15.8621	1.72727	1.29789	12.6194
16.2414	1.72727	1.29789	-13.9141
16.6207	1.72727	1.29789	-75.8751
17	1.72727	1.29789	-inf
6	1.73737	1.33064	56.359
6.37931	1.73737	1.33064	55.9399
6.75862	1.73737	1.33064	55.4175
7.13793	1.73737	1.33064	54.7813
7.51724	1.73737	1.33064	54.0762
7.89655	1.73737	1.33064	53.3359
8.27586	1.73737	1.33064	52.5734
8.65517	1.73737	1.33064	51.7872
9.03448	1.73737	1.33064	50.9623
9.41379	1.73737	1.33064	50.0748
9.7931	1.73737	1.33064	49.1074
10.1724	1.73737	1.33064	48.0666
10.5517	1.73737	1.33064	46.9764
10.931	1.73737	1.33064	45.8595
11.3103	1.73737	1.33064	44.7293
11.6897	1.73737	1.33064	43.592
12.069	1.73737	1.33064	42.4487
12.4483	1.73737	1.33064	41.2973
12.8276	1.73737	1.33064	40.1315
13.2069	1.73737	1.33064	38.9385
13.5862	1.73737	1.33064	37.6944
13.9655	1.73737	1.33064	36.3527
14.3448	1.73737	1.33064	34.8197
14.7241	1.73737	1.33064	32.8719
15.1034	1.73737	1.33064	29.8818
15.4828	1.73737	1.33064	24.3166
15.8621	1.73737	1.33064	12.5752
16.2414	1.73737	1.33064	-13.9583
16.6207	1.73737	1.33064	-75.9194
17	1.73737	1.33064	-inf
6	1.74747	1.36242	56.3005
6.37931	1.74747	1.36242	55.8813
6.75862	1.74747	1.36242	55.3589
7.13793	1.74747	1.36242	54.7227
7.51724	1.74747	1.36242	54.0176
7.89655	1.74747	1.36242	53.2771
8.27586	1.74747	1.36242	52.5144
8.65517	1.74747	1.36242	51.7276
9.03448	1.74747	1.36242	50.9015
9.41379	1.74747	1.36242	50.0124
9.7931	1.74747	1.36242	49.0432
10.1724	1.74747	1.36242	48.0011
10.5517	1.74747	1.36242	46.9101
10.931	1.74747	1.36242	45.7928
11.3103	1.74747	1.36242	44.6625
11.6897	1.74747	1.36242	43.525
12.069	1.74747	1.36242	42.3818
12.4483	1.74747	1.36242	41.2303
12.8276	1.74747	1.36242	40.0645
13.2069	1.74747	1.36242	38.8715
13.5862	1.74747	1.36242	37.6274
13.9655	1.74747	1.36242	36.2857
14.3448	1.74747	1.36242	34.7527
14.7241	1.74747	1.36242	32.8049
15.1034	1.74747	1.36242	29.8148
15.4828	1.74747	1.36242	24.2496
15.8621	1.74747	1.36242	12.5082
16.2414	1.74747	1.36242	-14.0253
16.6207	1.74747	1.36242	-75.9864
17	1.74747	1.36242	-inf
6	1.75758	1.39646	56.2533
6.37931	1.75758	1.39646	55.834
6.75862	1.75758	1.39646	55.3116
7.13793	1.75758	1.39646	54.6753
7.51724	1.75758	1.39646	53.9701
7.89655	1.75758	1.39646	53.2295
8.27586	1.75758	1.39646	52.4665
8.65517	1.75758	1.39646	51.6791
9.03448	1.75758	1.39646	50.8519
9.41379	1.75758	1.39646	49.9611
9.7931	1.75758	1.39646	48.99
10.1724	1.75758	1.39646	47.9464
10.5517	1.75758	1.39646	46.8546
10.931	1.75758	1.39646	45.7369
11.3103	1.75758	1.39646	44.6064
11.6897	1.75758	1.39646	43.4689
12.069	1.75758	1.39646	42.3256
12.4483	1.75758	1.39646	41.1742
12.8276	1.75758	1.39646	40.0083
13.2069	1.75758	1.39646	38.8153
13.5862	1.75758	1.39646	37.5712
13.9655	1.75758	1.39646	36.2295
14.3448	1.75758	1.39646	34.6965
14.7241	1.75758	1.39646	32.7487
15.1034	1.75758	1.39646	29.7586
15.4828	1.75758	1.39646	24.1934
15.8621	1.75758	1.39646	12.452
16.2414	1.75758	1.39646	-14.0815
16.6207	1.75758	1.39646	-76.0425
17	1.75758	1.39646	-inf
6	1.76768	1.4295	56.1738
6.37931	1.76768	1.4295	55.7545
6.75862	1.76768	1.4295	55.2321
7.13793	1.76768	1.4295	54.5957
7.51724	1.76768	1.4295	53.8905
7.89655	1.76768	1.4295	53.1498
8.27586	1.76768	1.4295	52.3865
8.65517	1.76768	1.4295	51.5985
9.03448	1.76768	1.4295	50.7702
9.41379	1.76768	1.4295	49.8777
9.7931	1.76768	1.4295	48.9049
10.1724	1.76768	1.4295	47.86
10.5517	1.76768	1.4295	46.7673
10.931	1.76768	1.4295	45.6492
11.3103	1.76768	1.4295	44.5186
11.6897	1.76768	1.4295	43.381
12.069	1.76768	1.4295	42.2377
12.4483	1.76768	1.4295	41.0862
12.8276	1.76768	1.4295	39.9204
13.2069	1.76768	1.4295	38.7274
13.5862	1.76768	1.4295	37.4832
13.9655	1.76768	1.4295	36.1416
14.3448	1.76768	1.4295	34.6085
14.7241	1.76768	1.4295	32.6607
15.1034	1.76768	1.4295	29.6707
15.4828	1.76768	1.4295	24.1054
15.8621	1.76768	1.4295	12.364
16.2414	1.76768	1.4295	-14.1695
16.6207	1.76768	1.4295	-76.1305
17	1.76768	1.4295	-inf
6	1.77778	1.4666	56.1337
6.37931	1.77778	1.4666	55.7144
6.75862	1.77778	1.4666	55.1919
7.13793	1.77778	1.4666	54.5555
7.51724	1.77778	1.4666	53.8503
7.89655	1.77778	1.4666	53.1094
8.27586	1.77778	1.4666	52.3458
8.65517	1.77778	1.4666	51.5571
9.03448	1.77778	1.4666	50.7276
9.41379	1.77778	1.4666	49.8333
9.7931	1.77778	1.4666	48.8585
10.1724	1.77778	1.4666	47.8121
10.5517	1.77778	1.4666	46.7187
10.931	1.77778	1.4666	45.6001
11.3103	1.77778	1.4666	44.4693
11.6897	1.77778	1.4666	43.3317
12.069	1.77778	1.4666	42.1883
12.4483	1.77778	1.4666	41.0368
12.8276	1.77778	1.4666	39.8709
13.2069	1.77778	1.4666	38.678
13.5862	1.77778	1.4666	37.4338
13.9655	1.77778	1.4666	36.0922
14.3448	1.77778	1.4666	34.5591
14.7241	1.77778	1.4666	32.6113
15.1034	1.77778	1.4666	29.6213
15.4828	1.77778	1.4666	24.056
15.8621	1.77778	1.4666	12.3146
16.2414	1.77778	1.4666	-14.2189
16.6207	1.77778	1.4666	-76.1799
17	1.77778	1.4666	-inf
6	1.78788	1.50273	56.0552
6.37931	1.78788	1.50273	55.6358
6.75862	1.78788	1.50273	55.1133
7.13793	1.78788	1.50273	54.4769
7.51724	1.78788	1.50273	53.7716
7.89655	1.78788	1.50273	53.0306
8.27586	1.78788	1.50273	52.2667
8.65517	1.78788	1.50273	51.4774
9.03448	1.78788	1.50273	50.6467
9.41379	1.78788	1.50273	49.7506
9.7931	1.78788	1.50273	48.7739
10.1724	1.78788	1.50273	47.7261
10.5517	1.78788	1.50273	46.6319
10.931	1.78788	1.50273	45.513
11.3103	1.78788	1.50273	44.382
11.6897	1.78788	1.50273	43.2443
12.069	1.78788	1.50273	42.1009
12.4483	1.78788	1.50273	40.9494
12.8276	1.78788	1.50273	39.7835
13.2069	1.78788	1.50273	38.5905
13.5862	1.78788	1.50273	37.3464
13.9655	1.78788	1.50273	36.0047
14.3448	1.78788	1.50273	34.4717
14.7241	1.78788	1.50273	32.5239
15.1034	1.78788	1.50273	29.5338
15.4828	1.78788	1.50273	23.9686
15.8621	1.78788	1.50273	12.2272
16.2414	1.78788	1.50273	-14.3063
16.6207	1.78788	1.50273	-76.2673
17	1.78788	1.50273	-inf
6	1.79798	1.54138	55.9964
6.37931	1.79798	1.54138	55.5769
6.75862	1.79798	1.54138	55.0544
7.13793	1.79798	1.54138	54.418
7.51724	1.79798	1.54138	53.7126
7.89655	1.79798	1.54138	52.9714
8.27586	1.79798	1.54138	52.2072
8.65517	1.79798	1.54138	51.4172
9.03448	1.79798	1.54138	50.5852
9.41379	1.79798	1.54138	49.6873
9.7931	1.79798	1.54138	48.7087
10.1724	1.79798	1.54138	47.6595
10.5517	1.79798	1.54138	46.5644
10.931	1.79798	1.54138	45.4451
11.3103	1.79798	1.54138	44.3139
11.6897	1.79798	1.54138	43.1761
12.069	1.79798	1.54138	42.0327
12.4483	1.79798	1.54138	40.8812
12.8276	1.79798	1.54138	39.7153
13.2069	1.79798	1.54138	38.5224
13.5862	1.79798	1.54138	37.2782
13.9655	1.79798	1.54138	35.9366
14.3448	1.79798	1.54138	34.4035
14.7241	1.79798	1.54138	32.4557
15.1034	1.79798	1.54138	29.4656
15.4828	1.79798	1.54138	23.9004
15.8621	1.79798	1.54138	12.159
16.2414	1.79798	1.54138	-14.3745
16.6207	1.79798	1.54138	-76.3355
17	1.79798	1.54138	-inf
6	1.80808	1.58084	55.9252
6.37931	1.80808	1.58084	55.5057
6.75862	1.80808	1.58084	54.9832
7.13793	1.80808	1.58084	54.3467
7.51724	1.80808	1.58084	53.6412
7.89655	1.80808	1.58084	52.8999
8.27586	1.80808	1.58084	52.1354
8.65517	1.80808	1.58084	51.3447
9.03448	1.80808	1.58084	50.5115
9.41379	1.80808	1.58084	49.6116
9.7931	1.80808	1.58084	48.6311
10.1724	1.80808	1.58084	47.5805
10.5517	1.80808	1.58084	46.4846
10.931	1.80808	1.58084	45.3649
11.3103	1.80808	1.58084	44.2336
11.6897	1.80808	1.58084	43.0957
12.069	1.80808	1.58084	41.9522
12.4483	1.80808	1.58084	40.8007
12.8276	1.80808	1.58084	39.6348
13.2069	1.80808	1.58084	38.4419
13.5862	1.80808	1.58084	37.1977
13.9655	1.80808	1.58084	35.8561
14.3448	1.80808	1.58084	34.323
14.7241	1.80808	1.58084	32.3752
15.1034	1.80808	1.58084	29.3851
15.4828	1.80808	1.58084	23.8199
15.8621	1.80808	1.58084	12.0785
16.2414	1.80808	1.58084	-14.455
16.6207	1.80808	1.58084	-76.416
17	1.80808	1.58084	-inf
6	1.81818	1.62113	55.8362
6.37931	1.81818	1.62113	55.4167
6.75862	1.81818	1.62113	54.8942
7.13793	1.81818	1.62113	54.2577
7.51724	1.81818	1.62113	53.5521
7.89655	1.81818	1.62113	52.8107
8.27586	1.81818	1.62113	52.0458
8.65517	1.81818	1.62113	51.2544
9.03448	1.81818	1.62113	50.4199
9.41379	1.81818	1.62113	49.5182
9.7931	1.81818	1.62113	48.5357
10.1724	1.81818	1.62113	47.4837
10.5517	1.81818	1.62113	46.387
10.931	1.81818	1.62113	45.267
11.3103	1.81818	1.62113	44.1354
11.6897	1.81818	1.62113	42.9975
12.069	1.81818	1.62113	41.854
12.4483	1.81818	1.62113	40.7025
12.8276	1.81818	1.62113	39.5366
13.2069	1.81818	1.62113	38.3436
13.5862	1.81818	1.62113	37.0995
13.9655	1.81818	1.62113	35.7578
14.3448	1.81818	1.62113	34.2247
14.7241	1.81818	1.62113	32.2769
15.1034	1.81818	1.62113	29.2869
15.4828	1.81818	1.62113	23.7216
15.8621	1.81818	1.62113	11.9802
16.2414	1.81818	1.62113	-14.5533
16.6207	1.81818	1.62113	-76.5143
17	1.81818	1.62113	-inf
6	1.82828	1.66228	55.7192
6.37931	1.82828	1.66228	55.2997
6.75862	1.82828	1.66228	54.7771
7.13793	1.82828	1.66228	54.1405
7.51724	1.82828	1.66228	53.4349
7.89655	1.82828	1.66228	52.6933
8.27586	1.82828	1.66228	51.9281
8.65517	1.82828	1.66228	51.136
9.03448	1.82828	1.66228	50.3001
9.41379	1.82828	1.66228	49.3966
9.7931	1.82828	1.66228	48.4122
10.1724	1.82828	1.66228	47.3587
10.5517	1.82828	1.66228	46.2613
10.931	1.82828	1.66228	45.1409
11.3103	1.82828	1.66228	44.0092
11.6897	1.82828	1.66228	42.8712
12.069	1.82828	1.66228	41.7277
12.4483	1.82828	1.66228	40.5761
12.8276	1.82828	1.66228	39.4102
13.2069	1.82828	1.66228	38.2172
13.5862	1.82828	1.66228	36.9731
13.9655	1.82828	1.66228	35.6314
14.3448	1.82828	1.66228	34.0984
14.7241	1.82828	1.66228	32.1506
15.1034	1.82828	1.66228	29.1605
15.4828	1.82828	1.66228	23.5953
15.8621	1.82828	1.66228	11.8539
16.2414	1.82828	1.66228	-14.6796
16.6207	1.82828	1.66228	-76.6406
17	1.82828	1.66228	-inf
6	1.83838	1.70626	55.6502
6.37931	1.83838	1.70626	55.2306
6.75862	1.83838	1.70626	54.708
7.13793	1.83838	1.70626	54.0714
7.51724	1.83838	1.70626	53.3658
7.89655	1.83838	1.70626	52.624
8.27586	1.83838	1.70626	51.8584
8.65517	1.83838	1.70626	51.0656
9.03448	1.83838	1.70626	50.2283
9.41379	1.83838	1.70626	49.3227
9.7931	1.83838	1.70626	48.3364
10.1724	1.83838	1.70626	47.2815
10.5517	1.83838	1.70626	46.1833
10.931	1.83838	1.70626	45.0624
11.3103	1.83838	1.70626	43.9306
11.6897	1.83838	1.70626	42.7925
12.069	1.83838	1.70626	41.6489
12.4483	1.83838	1.70626	40.4974
12.8276	1.83838	1.70626	39.3315
13.2069	1.83838	1.70626	38.1385
13.5862	1.83838	1.70626	36.8944
13.9655	1.83838	1.70626	35.5527
14.3448	1.83838	1.70626	34.0196
14.7241	1.83838	1.70626	32.0719
15.1034	1.83838	1.70626	29.0818
15.4828	1.83838	1.70626	23.5165
15.8621	1.83838	1.70626	11.7752
16.2414	1.83838	1.70626	-14.7584
16.6207	1.83838	1.70626	-76.7194
17	1.83838	1.70626	-inf
6	1.84848	1.75121	55.5633
6.37931	1.84848	1.75121	55.1438
6.75862	1.84848	1.75121	54.6211
7.13793	1.84848	1.75121	53.9845
7.51724	1.84848	1.75121	53.2788
7.89655	1.84848	1.75121	52.5369
8.27586	1.84848	1.75121	51.771
8.65517	1.84848	1.75121	50.9773
9.03448	1.84848	1.75121	50.1386
9.41379	1.84848	1.75121	49.2311
9.7931	1.84848	1.75121	48.2427
10.1724	1.84848	1.75121	47.1864
10.5517	1.84848	1.75121	46.0874
10.931	1.84848	1.75121	44.9662
11.3103	1.84848	1.75121	43.8342
11.6897	1.84848	1.75121	42.696
12.069	1.84848	1.75121	41.5524
12.4483	1.84848	1.75121	40.4009
12.8276	1.84848	1.75121	39.235
13.2069	1.84848	1.75121	38.042
13.5862	1.84848	1.75121	36.7978
13.9655	1.84848	1.75121	35.4562
14.3448	1.84848	1.75121	33.9231
14.7241	1.84848	1.75121	31.9753
15.1034	1.84848	1.75121	28.9852
15.4828	1.84848	1.75121	23.42
15.8621	1.84848	1.75121	11.6786
16.2414	1.84848	1.75121	-14.8549
16.6207	1.84848	1.75121	-76.8159
17	1.84848	1.75121	-inf
6	1.85859	1.79716	55.4484
6.37931	1.85859	1.79716	55.0289
6.75862	1.85859	1.79716	54.5062
7.13793	1.85859	1.79716	53.8696
7.51724	1.85859	1.79716	53.1638
7.89655	1.85859	1.79716	52.4217
8.27586	1.85859	1.79716	51.6554
8.65517	1.85859	1.79716	50.8609
9.03448	1.85859	1.79716	50.0208
9.41379	1.85859	1.79716	49.1113
9.7931	1.85859	1.79716	48.1209
10.1724	1.85859	1.79716	47.0632
10.5517	1.85859	1.79716	45.9634
10.931	1.85859	1.79716	44.8419
11.3103	1.85859	1.79716	43.7097
11.6897	1.85859	1.79716	42.5715
12.069	1.85859	1.79716	41.4278
12.4483	1.85859	1.79716	40.2763
12.8276	1.85859	1.79716	39.1104
13.2069	1.85859	1.79716	37.9174
13.5862	1.85859	1.79716	36.6732
13.9655	1.85859	1.79716	35.3316
14.3448	1.85859	1.79716	33.7985
14.7241	1.85859	1.79716	31.8507
15.1034	1.85859	1.79716	28.8606
15.4828	1.85859	1.79716	23.2954
15.8621	1.85859	1.79716	11.554
16.2414	1.85859	1.79716	-14.9795
16.6207	1.85859	1.79716	-76.9405
17	1.85859	1.79716	-inf
6	1.86869	1.84414	55.2823
6.37931	1.86869	1.84414	54.8627
6.75862	1.86869	1.84414	54.34
7.13793	1.86869	1.84414	53.7034
7.51724	1.86869	1.84414	52.9975
7.89655	1.86869	1.84414	52.2552
8.27586	1.86869	1.84414	51.4885
8.65517	1.86869	1.84414	50.6933
9.03448	1.86869	1.84414	49.8518
9.41379	1.86869	1.84414	48.9402
9.7931	1.86869	1.84414	47.9479
10.1724	1.86869	1.84414	46.8888
10.5517	1.86869	1.84414	45.7882
10.931	1.86869	1.84414	44.6663
11.3103	1.86869	1.84414	43.534
11.6897	1.86869	1.84414	42.3957
12.069	1.86869	1.84414	41.2521
12.4483	1.86869	1.84414	40.1005
12.8276	1.86869	1.84414	38.9345
13.2069	1.86869	1.84414	37.7416
13.5862	1.86869	1.84414	36.4974
13.9655	1.86869	1.84414	35.1558
14.3448	1.86869	1.84414	33.6227
14.7241	1.86869	1.84414	31.6749
15.1034	1.86869	1.84414	28.6848
15.4828	1.86869	1.84414	23.1196
15.8621	1.86869	1.84414	11.3782
16.2414	1.86869	1.84414	-15.1553
16.6207	1.86869	1.84414	-77.1163
17	1.86869	1.84414	-inf
6	1.87879	1.89216	54.9912
6.37931	1.87879	1.89216	54.5716
6.75862	1.87879	1.89216	54.0489
7.13793	1.87879	1.89216	53.4122
7.51724	1.87879	1.89216	52.7063
7.89655	1.87879	1.89216	51.9638
8.27586	1.87879	1.89216	51.1967
8.65517	1.87879	1.89216	50.4007
9.03448	1.87879	1.89216	49.5577
9.41379	1.87879	1.89216	48.6441
9.7931	1.87879	1.89216	47.6498
10.1724	1.87879	1.89216	46.5893
10.5517	1.87879	1.89216	45.4881
10.931	1.87879	1.89216	44.3658
11.3103	1.87879	1.89216	43.2333
11.6897	1.87879	1.89216	42.0949
12.069	1.87879	1.89216	40.9513
12.4483	1.87879	1.89216	39.7997
12.8276	1.87879	1.89216	38.6337
13.2069	1.87879	1.89216	37.4408
13.5862	1.87879	1.89216	36.1966
13.9655	1.87879	1.89216	34.8549
14.3448	1.87879	1.89216	33.3219
14.7241	1.87879	1.89216	31.3741
15.1034	1.87879	1.89216	28.384
15.4828	1.87879	1.89216	22.8188
15.8621	1.87879	1.89216	11.0774
16.2414	1.87879	1.89216	-15.4561
16.6207	1.87879	1.89216	-77.4171
17	1.87879	1.89216	-inf
6	1.88889	1.94126	-nan(ind)
6.37931	1.88889	1.94126	-nan(ind)
6.75862	1.88889	1.94126	-nan(ind)
7.13793	1.88889	1.94126	-nan(ind)
7.51724	1.88889	1.94126	-nan(ind)
7.89655	1.88889	1.94126	-nan(ind)
8.27586	1.88889	1.94126	-nan(ind)
8.65517	1.88889	1.94126	-nan(ind)
9.03448	1.88889	1.94126	-nan(ind)
9.41379	1.88889	1.94126	-nan(ind)
9.7931	1.88889	1.94126	-nan(ind)
10.1724	1.88889	1.94126	-nan(ind)
10.5517	1.88889	1.94126	-nan(ind)
10.931	1.88889	1.94126	-nan(ind)
11.3103	1.88889	1.94126	-nan(ind)
11.6897	1.88889	1.94126	-nan(ind)
12.069	1.88889	1.94126	-nan(ind)
12.4483	1.88889	1.94126	-nan(ind)
12.8276	1.88889	1.94126	-nan(ind)
13.2069	1.88889	1.94126	-nan(ind)
13.5862	1.88889	1.94126	-nan(ind)
13.9655	1.88889	1.94126	-nan(ind)
14.3448	1.88889	1.94126	-nan(ind)
14.7241	1.88889	1.94126	-nan(ind)
15.1034	1.88889	1.94126	-nan(ind)
15.4828	1.88889	1.94126	-nan(ind)
15.8621	1.88889	1.94126	-nan(ind)
16.2414	1.88889	1.94126	-nan(ind)
16.6207	1.88889	1.94126	-nan(ind)
17	1.88889	1.94126	-inf
6	1.89899	1.99371	-inf
6.37931	1.89899	1.99371	-inf
6.75862	1.89899	1.99371	-inf
7.13793	1.89899	1.99371	-inf
7.51724	1.89899	1.99371	-inf
7.89655	1.89899	1.99371	-inf
8.27586	1.89899	1.99371	-inf
8.65517	1.89899	1.99371	-inf
9.03448	1.89899	1.99371	-inf
9.41379	1.89899	1.99371	-inf
9.7931	1.89899	1.99371	-inf
10.1724	1.89899	1.99371	-inf
10.5517	1.89899	1.99371	-inf
10.931	1.89899	1.99371	-inf
11.3103	1.89899	1.99371	-inf
11.6897	1.89899	1.99371	-inf
12.069	1.89899	1.99371	-inf
12.4483	1.89899	1.99371	-inf
12.8276	1.89899	1.99371	-inf
13.2069	1.89899	1.99371	-inf
13.5862	1.89899	1.99371	-inf
13.9655	1.89899	1.99371	-inf
14.3448	1.89899	1.99371	-inf
14.7241	1.89899	1.99371	-inf
15.1034	1.89899	1.99371	-inf
15.4828	1.89899	1.99371	-inf
15.8621	1.89899	1.99371	-inf
16.2414	1.89899	1.99371	-inf
16.6207	1.89899	1.99371	-inf
17	1.89899	1.99371	-inf
6	1.90909	2.0474	-inf
6.37931	1.90909	2.0474	-inf
6.75862	1.90909	2.0474	-inf
7.13793	1.90909	2.0474	-inf
7.51724	1.90909	2.0474	-inf
7.89655	1.90909	2.0474	-inf
8.27586	1.90909	2.0474	-inf
8.65517	1.90909	2.0474	-inf
9.03448	1.90909	2.0474	-inf
9.41379	1.90909	2.0474	-inf
9.7931	1.90909	2.0474	-inf
10.1724	1.90909	2.0474	-inf
10.5517	1.90909	2.0474	-inf
10.931	1.90909	2.0474	-inf
11.3103	1.90909	2.0474	-inf
11.6897	1.90909	2.0474	-inf
12.069	1.90909	2.0474	-inf
12.4483	1.90909	2.0474	-inf
12.8276	1.90909	2.0474	-inf
13.2069	1.90909	2.0474	-inf
13.5862	1.90909	2.0474	-inf
13.9655	1.90909	2.0474	-inf
14.3448	1.90909	2.0474	-inf
14.7241	1.90909	2.0474	-inf
15.1034	1.90909	2.0474	-inf
15.4828	1.90909	2.0474	-inf
15.8621	1.90909	2.0474	-inf
16.2414	1.90909	2.0474	-inf
16.6207	1.90909	2.0474	-inf
17	1.90909	2.0474	-inf
6	1.91919	2.10235	-inf
6.37931	1.91919	2.10235	-inf
6.75862	1.91919	2.10235	-inf
7.13793	1.91919	2.10235	-inf
7.51724	1.91919	2.10235	-inf
7.89655	1.91919	2.10235	-inf
8.27586	1.91919	2.10235	-inf
8.65517	1.91919	2.10235	-inf
9.03448	1.91919	2.10235	-inf
9.41379	1.91919	2.10235	-inf
9.7931	1.91919	2.10235	-inf
10.1724	1.91919	2.10235	-inf
10.5517	1.91919	2.10235	-inf
10.931	1.91919	2.10235	-inf
11.3103	1.91919	2.10235	-inf
11.6897	1.91919	2.10235	-inf
12.069	1.91919	2.10235	-inf
12.4483	1.91919	2.10235	-inf
12.8276	1.91919	2.10235	-inf
13.2069	1.91919	2.10235	-inf
13.5862	1.91919	2.10235	-inf
13.9655	1.91919	2.10235	-inf
14.3448	1.91919	2.10235	-inf
14.7241	1.91919	2.10235	-inf
15.1034	1.91919	2.10235	-inf
15.4828	1.91919	2.10235	-inf
15.8621	1.91919	2.10235	-inf
16.2414	1.91919	2.10235	-inf
16.6207	1.91919	2.10235	-inf
17	1.91919	2.10235	-inf
6	1.92929	2.1586	-inf
6.37931	1.92929	2.1586	-inf
6.75862	1.92929	2.1586	-inf
7.13793	1.92929	2.1586	-inf
7.51724	1.92929	2.1586	-inf
7.89655	1.92929	2.1586	-inf
8.27586	1.92929	2.1586	-inf
8.65517	1.92929	2.1586	-inf
9.03448	1.92929	2.1586	-inf
9.41379	1.92929	2.1586	-inf
9.7931	1.92929	2.1586	-inf
10.1724	1.92929	2.1586	-inf
10.5517	1.92929	2.1586	-inf
10.931	1.92929	2.1586	-inf
11.3103	1.92929	2.1586	-inf
11.6897	1.92929	2.1586	-inf
12.069	1.92929	2.1586	-inf
12.4483	1.92929	2.1586	-inf
12.8276	1.92929	2.1586	-inf
13.2069	1.92929	2.1586	-inf
13.5862	1.92929	2.1586	-inf
13.9655	1.92929	2.1586	-inf
14.3448	1.92929	2.1586	-inf
14.7241	1.92929	2.1586	-inf
15.1034	1.92929	2.1586	-inf
15.4828	1.92929	2.1586	-inf
15.8621	1.92929	2.1586	-inf
16.2414	1.92929	2.1586	-inf
16.6207	1.92929	2.1586	-inf
17	1.92929	2.1586	-inf
6	1.93939	2.21617	-inf
6.37931	1.93939	2.21617	-inf
6.75862	1.93939	2.21617	-inf
7.13793	1.93939	2.21617	-inf
7.51724	1.93939	2.21617	-inf
7.89655	1.93939	2.21617	-inf
8.27586	1.93939	2.21617	-inf
8.65517	1.93939	2.21617	-inf
9.03448	1.93939	2.21617	-inf
9.41379	1.93939	2.21617	-inf
9.7931	1.93939	2.21617	-inf
10.1724	1.93939	2.21617	-inf
10.5517	1.93939	2.21617	-inf
10.931	1.93939	2.21617	-inf
11.3103	1.93939	2.21617	-inf
11.6897	1.93939	2.21617	-inf
12.069	1.93939	2.21617	-inf
12.4483	1.93939	2.21617	-inf
12.8276	1.93939	2.21617	-inf
13.2069	1.93939	2.21617	-inf
13.5862	1.93939	2.21617	-inf
13.9655	1.93939	2.21617	-inf
14.3448	1.93939	2.21617	-inf
14.7241	1.93939	2.21617	-inf
15.1034	1.93939	2.21617	-inf
15.4828	1.93939	2.21617	-inf
15.8621	1.93939	2.21617	-inf
16.2414	1.93939	2.21617	-inf
16.6207	1.93939	2.21617	-inf
17	1.93939	2.21617	-inf
6	1.94949	2.27509	-inf
6.37931	1.94949	2.27509	-inf
6.75862	1.94949	2.27509	-inf
7.13793	1.94949	2.27509	-inf
7.51724	1.94949	2.27509	-inf
7.89655	1.94949	2.27509	-inf
8.27586	1.94949	2.27509	-inf
8.65517	1.94949	2.27509	-inf
9.03448	1.94949	2.27509	-inf
9.41379	1.94949	2.27509	-inf
9.7931	1.94949	2.27509	-inf
10.1724	1.94949	2.27509	-inf
10.5517	1.94949	2.27509	-inf
10.931	1.94949	2.27509	-inf
11.3103	1.94949	2.27509	-inf
11.6897	1.94949	2.27509	-inf
12.069	1.94949	2.27509	-inf
12.4483	1.94949	2.27509	-inf
12.8276	1.94949	2.27509	-inf
13.2069	1.94949	2.27509	-inf
13.5862	1.94949	2.27509	-inf
13.9655	1.94949	2.27509	-inf
14.3448	1.94949	2.27509	-inf
14.7241	1.94949	2.27509	-inf
15.1034	1.94949	2.27509	-inf
15.4828	1.94949	2.27509	-inf
15.8621	1.94949	2.27509	-inf
16.2414	1.94949	2.27509	-inf
16.6207	1.94949	2.27509	-inf
17	1.94949	2.27509	-inf
6	1.9596	2.3354	-inf
6.37931	1.9596	2.3354	-inf
6.75862	1.9596	2.3354	-inf
7.13793	1.9596	2.3354	-inf
7.51724	1.9596	2.3354	-inf
7.89655	1.9596	2.3354	-inf
8.27586	1.9596	2.3354	-inf
8.65517	1.9596	2.3354	-inf
9.03448	1.9596	2.3354	-inf
9.41379	1.9596	2.3354	-inf
9.7931	1.9596	2.3354	-inf
10.1724	1.9596	2.3354	-inf
10.5517	1.9596	2.3354	-inf
10.931	1.9596	2.3354	-inf
11.3103	1.9596	2.3354	-inf
11.6897	1.9596	2.3354	-inf
12.069	1.9596	2.3354	-inf
12.4483	1.9596	2.3354	-inf
12.8276	1.9596	2.3354	-inf
13.2069	1.9596	2.3354	-inf
13.5862	1.9596	2.3354	-inf
13.9655	1.9596	2.3354	-inf
14.3448	1.9596	2.3354	-inf
14.7241	1.9596	2.3354	-inf
15.1034	1.9596	2.3354	-inf
15.4828	1.9596	2.3354	-inf
15.8621	1.9596	2.3354	-inf
16.2414	1.9596	2.3354	-inf
16.6207	1.9596	2.3354	-inf
17	1.9596	2.3354	-inf
6	1.9697	2.39713	-inf
6.37931	1.9697	2.39713	-inf
6.75862	1.9697	2.39713	-inf
7.13793	1.9697	2.39713	-inf
7.51724	1.9697	2.39713	-inf
7.89655	1.9697	2.39713	-inf
8.27586	1.9697	2.39713	-inf
8.65517	1.9697	2.39713	-inf
9.03448	1.9697	2.39713	-inf
9.41379	1.9697	2.39713	-inf
9.7931	1.9697	2.39713	-inf
10.1724	1.9697	2.39713	-inf
10.5517	1.9697	2.39713	-inf
10.931	1.9697	2.39713	-inf
11.3103	1.9697	2.39713	-inf
11.6897	1.9697	2.39713	-inf
12.069	1.9697	2.39713	-inf
12.4483	1.9697	2.39713	-inf
12.8276	1.9697	2.39713	-inf
13.2069	1.9697	2.39713	-inf
13.5862	1.9697	2.39713	-inf
13.9655	1.9697	2.39713	-inf
14.3448	1.9697	2.39713	-inf
14.7241	1.9697	2.39713	-inf
15.1034	1.9697	2.39713	-inf
15.4828	1.9697	2.39713	-inf
15.8621	1.9697	2.39713	-inf
16.2414	1.9697	2.39713	-inf
16.6207	1.9697	2.39713	-inf
17	1.9697	2.39713	-inf
6	1.9798	2.46031	-inf
6.37931	1.9798	2.46031	-inf
6.75862	1.9798	2.46031	-inf
7.13793	1.9798	2.46031	-inf
7.51724	1.9798	2.46031	-inf
7.89655	1.9798	2.46031	-inf
8.27586	1.9798	2.46031	-inf
8.65517	1.9798	2.46031	-inf
9.03448	1.9798	2.46031	-inf
9.41379	1.9798	2.46031	-inf
9.7931	1.9798	2.46031	-inf
10.1724	1.9798	2.46031	-inf
10.5517	1.9798	2.46031	-inf
10.931	1.9798	2.46031	-inf
11.3103	1.9798	2.46031	-inf
11.6897	1.9798	2.46031	-inf
12.069	1.9798	2.46031	-inf
12.4483	1.9798	2.46031	-inf
12.8276	1.9798	2.46031	-inf
13.2069	1.9798	2.46031	-inf
13.5862	1.9798	2.46031	-inf
13.9655	1.9798	2.46031	-inf
14.3448	1.9798	2.46031	-inf
14.7241	1.9798	2.46031	-inf
15.1034	1.9798	2.46031	-inf
15.4828	1.9798	2.46031	-inf
15.8621	1.9798	2.46031	-inf
16.2414	1.9798	2.46031	-inf
16.6207	1.9798	2.46031	-inf
17	1.9798	2.46031	-inf
6	1.9899	2.52498	-inf
6.37931	1.9899	2.52498	-inf
6.75862	1.9899	2.52498	-inf
7.13793	1.9899	2.52498	-inf
7.51724	1.9899	2.52498	-inf
7.89655	1.9899	2.52498	-inf
8.27586	1.9899	2.52498	-inf
8.65517	1.9899	2.52498	-inf
9.03448	1.9899	2.52498	-inf
9.41379	1.9899	2.52498	-inf
9.7931	1.9899	2.52498	-inf
10.1724	1.9899	2.52498	-inf
10.5517	1.9899	2.52498	-inf
10.931	1.9899	2.52498	-inf
11.3103	1.9899	2.52498	-inf
11.6897	1.9899	2.52498	-inf
12.069	1.9899	2.52498	-inf
12.4483	1.9899	2.52498	-inf
12.8276	1.9899	2.52498	-inf
13.2069	1.9899	2.52498	-inf
13.5862	1.9899	2.52498	-inf
13.9655	1.9899	2.52498	-inf
14.3448	1.9899	2.52498	-inf
14.7241	1.9899	2.52498	-inf
15.1034	1.9899	2.52498	-inf
15.4828	1.9899	2.52498	-inf
15.8621	1.9899	2.52498	-inf
16.2414	1.9899	2.52498	-inf
16.6207	1.9899	2.52498	-inf
17	1.9899	2.52498	-inf
6	2	2.59117	-inf
6.37931	2	2.59117	-inf
6.75862	2	2.59117	-inf
7.13793	2	2.59117	-inf
7.51724	2	2.59117	-inf
7.89655	2	2.59117	-inf
8.27586	2	2.59117	-inf
8.65517	2	2.59117	-inf
9.03448	2	2.59117	-inf
9.41379	2	2.59117	-inf
9.7931	2	2.59117	-inf
10.1724	2	2.59117	-inf
10.5517	2	2.59117	-inf
10.931	2	2.59117	-inf
11.3103	2	2.59117	-inf
11.6897	2	2.59117	-inf
12.069	2	2.59117	-inf
12.4483	2	2.59117	-inf
12.8276	2	2.59117	-inf
13.2069	2	2.59117	-inf
13.5862	2	2.59117	-inf
13.9655	2	2.59117	-inf
14.3448	2	2.59117	-inf
14.7241	2	2.59117	-inf
15.1034	2	2.59117	-inf
15.4828	2	2.59117	-inf
15.8621	2	2.59117	-inf
16.2414	2	2.59117	-inf
16.6207	2	2.59117	-inf
17	2	2.59117	-inf
