log(E / eV)	log(z / pc)	t / yr	 logQ
6	1	0	49.7924
6.37931	1	0	50.2986
6.75862	1	0	50.0681
7.13793	1	0	49.53
7.51724	1	0	48.8634
7.89655	1	0	48.1432
8.27586	1	0	47.4007
8.65517	1	0	46.6488
9.03448	1	0	45.8929
9.41379	1	0	45.1355
9.7931	1	0	44.3773
10.1724	1	0	43.6189
10.5517	1	0	42.8603
10.931	1	0	42.1016
11.3103	1	0	41.3427
11.6897	1	0	40.5834
12.069	1	0	39.823
12.4483	1	0	39.0603
12.8276	1	0	38.2919
13.2069	1	0	37.5098
13.5862	1	0	36.695
13.9655	1	0	35.8019
14.3448	1	0	34.721
14.7241	1	0	33.1905
15.1034	1	0	30.5834
15.4828	1	0	25.3975
15.8621	1	0	14.0354
16.2414	1	0	-12.1188
16.6207	1	0	-73.7005
17	1	0	-220.132
6	1.0101	0.113921	48.9388
6.37931	1.0101	0.113921	49.445
6.75862	1.0101	0.113921	49.2144
7.13793	1.0101	0.113921	48.6763
7.51724	1.0101	0.113921	48.0098
7.89655	1.0101	0.113921	47.2896
8.27586	1.0101	0.113921	46.547
8.65517	1.0101	0.113921	45.7951
9.03448	1.0101	0.113921	45.0393
9.41379	1.0101	0.113921	44.2818
9.7931	1.0101	0.113921	43.5237
10.1724	1.0101	0.113921	42.7652
10.5517	1.0101	0.113921	42.0066
10.931	1.0101	0.113921	41.2479
11.3103	1.0101	0.113921	40.489
11.6897	1.0101	0.113921	39.7297
12.069	1.0101	0.113921	38.9694
12.4483	1.0101	0.113921	38.2067
12.8276	1.0101	0.113921	37.4382
13.2069	1.0101	0.113921	36.6562
13.5862	1.0101	0.113921	35.8414
13.9655	1.0101	0.113921	34.9482
14.3448	1.0101	0.113921	33.8673
14.7241	1.0101	0.113921	32.3369
15.1034	1.0101	0.113921	29.7297
15.4828	1.0101	0.113921	24.5438
15.8621	1.0101	0.113921	13.1817
16.2414	1.0101	0.113921	-12.9725
16.6207	1.0101	0.113921	-74.5542
17	1.0101	0.113921	-220.986
6	1.0202	0.142268	48.654
6.37931	1.0202	0.142268	49.1602
6.75862	1.0202	0.142268	48.9297
7.13793	1.0202	0.142268	48.3916
7.51724	1.0202	0.142268	47.725
7.89655	1.0202	0.142268	47.0048
8.27586	1.0202	0.142268	46.2622
8.65517	1.0202	0.142268	45.5103
9.03448	1.0202	0.142268	44.7545
9.41379	1.0202	0.142268	43.997
9.7931	1.0202	0.142268	43.2389
10.1724	1.0202	0.142268	42.4805
10.5517	1.0202	0.142268	41.7219
10.931	1.0202	0.142268	40.9632
11.3103	1.0202	0.142268	40.2043
11.6897	1.0202	0.142268	39.4449
12.069	1.0202	0.142268	38.6846
12.4483	1.0202	0.142268	37.9219
12.8276	1.0202	0.142268	37.1535
13.2069	1.0202	0.142268	36.3714
13.5862	1.0202	0.142268	35.5566
13.9655	1.0202	0.142268	34.6634
14.3448	1.0202	0.142268	33.5826
14.7241	1.0202	0.142268	32.0521
15.1034	1.0202	0.142268	29.445
15.4828	1.0202	0.142268	24.2591
15.8621	1.0202	0.142268	12.897
16.2414	1.0202	0.142268	-13.2572
16.6207	1.0202	0.142268	-74.8389
17	1.0202	0.142268	-221.27
6	1.0303	0.173977	48.5633
6.37931	1.0303	0.173977	49.0695
6.75862	1.0303	0.173977	48.839
7.13793	1.0303	0.173977	48.3009
7.51724	1.0303	0.173977	47.6343
7.89655	1.0303	0.173977	46.9141
8.27586	1.0303	0.173977	46.1715
8.65517	1.0303	0.173977	45.4196
9.03448	1.0303	0.173977	44.6638
9.41379	1.0303	0.173977	43.9063
9.7931	1.0303	0.173977	43.1482
10.1724	1.0303	0.173977	42.3898
10.5517	1.0303	0.173977	41.6312
10.931	1.0303	0.173977	40.8725
11.3103	1.0303	0.173977	40.1136
11.6897	1.0303	0.173977	39.3542
12.069	1.0303	0.173977	38.5939
12.4483	1.0303	0.173977	37.8312
12.8276	1.0303	0.173977	37.0628
13.2069	1.0303	0.173977	36.2807
13.5862	1.0303	0.173977	35.4659
13.9655	1.0303	0.173977	34.5727
14.3448	1.0303	0.173977	33.4919
14.7241	1.0303	0.173977	31.9614
15.1034	1.0303	0.173977	29.3543
15.4828	1.0303	0.173977	24.1684
15.8621	1.0303	0.173977	12.8063
16.2414	1.0303	0.173977	-13.3479
16.6207	1.0303	0.173977	-74.9296
17	1.0303	0.173977	-221.361
6	1.0404	0.196425	48.4754
6.37931	1.0404	0.196425	48.9816
6.75862	1.0404	0.196425	48.7511
7.13793	1.0404	0.196425	48.2129
7.51724	1.0404	0.196425	47.5464
7.89655	1.0404	0.196425	46.8262
8.27586	1.0404	0.196425	46.0836
8.65517	1.0404	0.196425	45.3317
9.03448	1.0404	0.196425	44.5759
9.41379	1.0404	0.196425	43.8184
9.7931	1.0404	0.196425	43.0603
10.1724	1.0404	0.196425	42.3019
10.5517	1.0404	0.196425	41.5433
10.931	1.0404	0.196425	40.7846
11.3103	1.0404	0.196425	40.0257
11.6897	1.0404	0.196425	39.2663
12.069	1.0404	0.196425	38.506
12.4483	1.0404	0.196425	37.7433
12.8276	1.0404	0.196425	36.9749
13.2069	1.0404	0.196425	36.1928
13.5862	1.0404	0.196425	35.378
13.9655	1.0404	0.196425	34.4848
14.3448	1.0404	0.196425	33.4039
14.7241	1.0404	0.196425	31.8735
15.1034	1.0404	0.196425	29.2664
15.4828	1.0404	0.196425	24.0804
15.8621	1.0404	0.196425	12.7184
16.2414	1.0404	0.196425	-13.4358
16.6207	1.0404	0.196425	-75.0175
17	1.0404	0.196425	-221.449
6	1.05051	0.217982	48.4163
6.37931	1.05051	0.217982	48.9225
6.75862	1.05051	0.217982	48.6919
7.13793	1.05051	0.217982	48.1538
7.51724	1.05051	0.217982	47.4873
7.89655	1.05051	0.217982	46.7671
8.27586	1.05051	0.217982	46.0245
8.65517	1.05051	0.217982	45.2726
9.03448	1.05051	0.217982	44.5168
9.41379	1.05051	0.217982	43.7593
9.7931	1.05051	0.217982	43.0012
10.1724	1.05051	0.217982	42.2427
10.5517	1.05051	0.217982	41.4841
10.931	1.05051	0.217982	40.7254
11.3103	1.05051	0.217982	39.9665
11.6897	1.05051	0.217982	39.2072
12.069	1.05051	0.217982	38.4469
12.4483	1.05051	0.217982	37.6842
12.8276	1.05051	0.217982	36.9158
13.2069	1.05051	0.217982	36.1337
13.5862	1.05051	0.217982	35.3189
13.9655	1.05051	0.217982	34.4257
14.3448	1.05051	0.217982	33.3448
14.7241	1.05051	0.217982	31.8144
15.1034	1.05051	0.217982	29.2072
15.4828	1.05051	0.217982	24.0213
15.8621	1.05051	0.217982	12.6592
16.2414	1.05051	0.217982	-13.495
16.6207	1.05051	0.217982	-75.0767
17	1.05051	0.217982	-221.508
6	1.06061	0.235869	48.3578
6.37931	1.06061	0.235869	48.8639
6.75862	1.06061	0.235869	48.6334
7.13793	1.06061	0.235869	48.0953
7.51724	1.06061	0.235869	47.4287
7.89655	1.06061	0.235869	46.7086
8.27586	1.06061	0.235869	45.966
8.65517	1.06061	0.235869	45.2141
9.03448	1.06061	0.235869	44.4582
9.41379	1.06061	0.235869	43.7008
9.7931	1.06061	0.235869	42.9427
10.1724	1.06061	0.235869	42.1842
10.5517	1.06061	0.235869	41.4256
10.931	1.06061	0.235869	40.6669
11.3103	1.06061	0.235869	39.908
11.6897	1.06061	0.235869	39.1487
12.069	1.06061	0.235869	38.3884
12.4483	1.06061	0.235869	37.6256
12.8276	1.06061	0.235869	36.8572
13.2069	1.06061	0.235869	36.0752
13.5862	1.06061	0.235869	35.2604
13.9655	1.06061	0.235869	34.3672
14.3448	1.06061	0.235869	33.2863
14.7241	1.06061	0.235869	31.7559
15.1034	1.06061	0.235869	29.1487
15.4828	1.06061	0.235869	23.9628
15.8621	1.06061	0.235869	12.6007
16.2414	1.06061	0.235869	-13.5535
16.6207	1.06061	0.235869	-75.1352
17	1.06061	0.235869	-221.567
6	1.07071	0.252744	48.308
6.37931	1.07071	0.252744	48.8142
6.75862	1.07071	0.252744	48.5837
7.13793	1.07071	0.252744	48.0456
7.51724	1.07071	0.252744	47.379
7.89655	1.07071	0.252744	46.6589
8.27586	1.07071	0.252744	45.9163
8.65517	1.07071	0.252744	45.1644
9.03448	1.07071	0.252744	44.4085
9.41379	1.07071	0.252744	43.6511
9.7931	1.07071	0.252744	42.8929
10.1724	1.07071	0.252744	42.1345
10.5517	1.07071	0.252744	41.3759
10.931	1.07071	0.252744	40.6172
11.3103	1.07071	0.252744	39.8583
11.6897	1.07071	0.252744	39.099
12.069	1.07071	0.252744	38.3387
12.4483	1.07071	0.252744	37.5759
12.8276	1.07071	0.252744	36.8075
13.2069	1.07071	0.252744	36.0254
13.5862	1.07071	0.252744	35.2106
13.9655	1.07071	0.252744	34.3175
14.3448	1.07071	0.252744	33.2366
14.7241	1.07071	0.252744	31.7062
15.1034	1.07071	0.252744	29.099
15.4828	1.07071	0.252744	23.9131
15.8621	1.07071	0.252744	12.551
16.2414	1.07071	0.252744	-13.6032
16.6207	1.07071	0.252744	-75.1849
17	1.07071	0.252744	-221.616
6	1.08081	0.26817	48.2611
6.37931	1.08081	0.26817	48.7673
6.75862	1.08081	0.26817	48.5368
7.13793	1.08081	0.26817	47.9987
7.51724	1.08081	0.26817	47.3321
7.89655	1.08081	0.26817	46.6119
8.27586	1.08081	0.26817	45.8693
8.65517	1.08081	0.26817	45.1174
9.03448	1.08081	0.26817	44.3616
9.41379	1.08081	0.26817	43.6041
9.7931	1.08081	0.26817	42.846
10.1724	1.08081	0.26817	42.0876
10.5517	1.08081	0.26817	41.329
10.931	1.08081	0.26817	40.5703
11.3103	1.08081	0.26817	39.8114
11.6897	1.08081	0.26817	39.052
12.069	1.08081	0.26817	38.2917
12.4483	1.08081	0.26817	37.529
12.8276	1.08081	0.26817	36.7606
13.2069	1.08081	0.26817	35.9785
13.5862	1.08081	0.26817	35.1637
13.9655	1.08081	0.26817	34.2705
14.3448	1.08081	0.26817	33.1897
14.7241	1.08081	0.26817	31.6592
15.1034	1.08081	0.26817	29.0521
15.4828	1.08081	0.26817	23.8662
15.8621	1.08081	0.26817	12.5041
16.2414	1.08081	0.26817	-13.6501
16.6207	1.08081	0.26817	-75.2318
17	1.08081	0.26817	-221.663
6	1.09091	0.282743	48.2175
6.37931	1.09091	0.282743	48.7237
6.75862	1.09091	0.282743	48.4932
7.13793	1.09091	0.282743	47.955
7.51724	1.09091	0.282743	47.2885
7.89655	1.09091	0.282743	46.5683
8.27586	1.09091	0.282743	45.8257
8.65517	1.09091	0.282743	45.0738
9.03448	1.09091	0.282743	44.318
9.41379	1.09091	0.282743	43.5605
9.7931	1.09091	0.282743	42.8024
10.1724	1.09091	0.282743	42.0439
10.5517	1.09091	0.282743	41.2854
10.931	1.09091	0.282743	40.5267
11.3103	1.09091	0.282743	39.7677
11.6897	1.09091	0.282743	39.0084
12.069	1.09091	0.282743	38.2481
12.4483	1.09091	0.282743	37.4854
12.8276	1.09091	0.282743	36.717
13.2069	1.09091	0.282743	35.9349
13.5862	1.09091	0.282743	35.1201
13.9655	1.09091	0.282743	34.2269
14.3448	1.09091	0.282743	33.146
14.7241	1.09091	0.282743	31.6156
15.1034	1.09091	0.282743	29.0084
15.4828	1.09091	0.282743	23.8225
15.8621	1.09091	0.282743	12.4605
16.2414	1.09091	0.282743	-13.6938
16.6207	1.09091	0.282743	-75.2755
17	1.09091	0.282743	-221.707
6	1.10101	0.29557	48.1716
6.37931	1.10101	0.29557	48.6778
6.75862	1.10101	0.29557	48.4473
7.13793	1.10101	0.29557	47.9091
7.51724	1.10101	0.29557	47.2426
7.89655	1.10101	0.29557	46.5224
8.27586	1.10101	0.29557	45.7798
8.65517	1.10101	0.29557	45.0279
9.03448	1.10101	0.29557	44.2721
9.41379	1.10101	0.29557	43.5146
9.7931	1.10101	0.29557	42.7565
10.1724	1.10101	0.29557	41.9981
10.5517	1.10101	0.29557	41.2395
10.931	1.10101	0.29557	40.4808
11.3103	1.10101	0.29557	39.7219
11.6897	1.10101	0.29557	38.9625
12.069	1.10101	0.29557	38.2022
12.4483	1.10101	0.29557	37.4395
12.8276	1.10101	0.29557	36.6711
13.2069	1.10101	0.29557	35.889
13.5862	1.10101	0.29557	35.0742
13.9655	1.10101	0.29557	34.181
14.3448	1.10101	0.29557	33.1001
14.7241	1.10101	0.29557	31.5697
15.1034	1.10101	0.29557	28.9626
15.4828	1.10101	0.29557	23.7766
15.8621	1.10101	0.29557	12.4146
16.2414	1.10101	0.29557	-13.7396
16.6207	1.10101	0.29557	-75.3214
17	1.10101	0.29557	-221.753
6	1.11111	0.309608	48.1355
6.37931	1.11111	0.309608	48.6417
6.75862	1.11111	0.309608	48.4112
7.13793	1.11111	0.309608	47.8731
7.51724	1.11111	0.309608	47.2065
7.89655	1.11111	0.309608	46.4863
8.27586	1.11111	0.309608	45.7438
8.65517	1.11111	0.309608	44.9918
9.03448	1.11111	0.309608	44.236
9.41379	1.11111	0.309608	43.4786
9.7931	1.11111	0.309608	42.7204
10.1724	1.11111	0.309608	41.962
10.5517	1.11111	0.309608	41.2034
10.931	1.11111	0.309608	40.4447
11.3103	1.11111	0.309608	39.6858
11.6897	1.11111	0.309608	38.9264
12.069	1.11111	0.309608	38.1661
12.4483	1.11111	0.309608	37.4034
12.8276	1.11111	0.309608	36.635
13.2069	1.11111	0.309608	35.8529
13.5862	1.11111	0.309608	35.0381
13.9655	1.11111	0.309608	34.1449
14.3448	1.11111	0.309608	33.0641
14.7241	1.11111	0.309608	31.5336
15.1034	1.11111	0.309608	28.9265
15.4828	1.11111	0.309608	23.7406
15.8621	1.11111	0.309608	12.3785
16.2414	1.11111	0.309608	-13.7757
16.6207	1.11111	0.309608	-75.3574
17	1.11111	0.309608	-221.789
6	1.12121	0.32246	48.0976
6.37931	1.12121	0.32246	48.6038
6.75862	1.12121	0.32246	48.3733
7.13793	1.12121	0.32246	47.8352
7.51724	1.12121	0.32246	47.1686
7.89655	1.12121	0.32246	46.4485
8.27586	1.12121	0.32246	45.7059
8.65517	1.12121	0.32246	44.954
9.03448	1.12121	0.32246	44.1981
9.41379	1.12121	0.32246	43.4407
9.7931	1.12121	0.32246	42.6825
10.1724	1.12121	0.32246	41.9241
10.5517	1.12121	0.32246	41.1655
10.931	1.12121	0.32246	40.4068
11.3103	1.12121	0.32246	39.6479
11.6897	1.12121	0.32246	38.8886
12.069	1.12121	0.32246	38.1283
12.4483	1.12121	0.32246	37.3655
12.8276	1.12121	0.32246	36.5971
13.2069	1.12121	0.32246	35.8151
13.5862	1.12121	0.32246	35.0003
13.9655	1.12121	0.32246	34.1071
14.3448	1.12121	0.32246	33.0262
14.7241	1.12121	0.32246	31.4958
15.1034	1.12121	0.32246	28.8886
15.4828	1.12121	0.32246	23.7027
15.8621	1.12121	0.32246	12.3406
16.2414	1.12121	0.32246	-13.8136
16.6207	1.12121	0.32246	-75.3953
17	1.12121	0.32246	-221.827
6	1.13131	0.334319	48.0584
6.37931	1.13131	0.334319	48.5646
6.75862	1.13131	0.334319	48.3341
7.13793	1.13131	0.334319	47.7959
7.51724	1.13131	0.334319	47.1294
7.89655	1.13131	0.334319	46.4092
8.27586	1.13131	0.334319	45.6666
8.65517	1.13131	0.334319	44.9147
9.03448	1.13131	0.334319	44.1589
9.41379	1.13131	0.334319	43.4014
9.7931	1.13131	0.334319	42.6433
10.1724	1.13131	0.334319	41.8849
10.5517	1.13131	0.334319	41.1263
10.931	1.13131	0.334319	40.3676
11.3103	1.13131	0.334319	39.6087
11.6897	1.13131	0.334319	38.8493
12.069	1.13131	0.334319	38.089
12.4483	1.13131	0.334319	37.3263
12.8276	1.13131	0.334319	36.5579
13.2069	1.13131	0.334319	35.7758
13.5862	1.13131	0.334319	34.961
13.9655	1.13131	0.334319	34.0678
14.3448	1.13131	0.334319	32.9869
14.7241	1.13131	0.334319	31.4565
15.1034	1.13131	0.334319	28.8493
15.4828	1.13131	0.334319	23.6634
15.8621	1.13131	0.334319	12.3014
16.2414	1.13131	0.334319	-13.8528
16.6207	1.13131	0.334319	-75.4346
17	1.13131	0.334319	-221.866
6	1.14141	0.346653	48.0234
6.37931	1.14141	0.346653	48.5296
6.75862	1.14141	0.346653	48.2991
7.13793	1.14141	0.346653	47.7609
7.51724	1.14141	0.346653	47.0944
7.89655	1.14141	0.346653	46.3742
8.27586	1.14141	0.346653	45.6316
8.65517	1.14141	0.346653	44.8797
9.03448	1.14141	0.346653	44.1239
9.41379	1.14141	0.346653	43.3664
9.7931	1.14141	0.346653	42.6083
10.1724	1.14141	0.346653	41.8499
10.5517	1.14141	0.346653	41.0913
10.931	1.14141	0.346653	40.3326
11.3103	1.14141	0.346653	39.5737
11.6897	1.14141	0.346653	38.8143
12.069	1.14141	0.346653	38.054
12.4483	1.14141	0.346653	37.2913
12.8276	1.14141	0.346653	36.5229
13.2069	1.14141	0.346653	35.7408
13.5862	1.14141	0.346653	34.926
13.9655	1.14141	0.346653	34.0328
14.3448	1.14141	0.346653	32.9519
14.7241	1.14141	0.346653	31.4215
15.1034	1.14141	0.346653	28.8144
15.4828	1.14141	0.346653	23.6284
15.8621	1.14141	0.346653	12.2664
16.2414	1.14141	0.346653	-13.8878
16.6207	1.14141	0.346653	-75.4696
17	1.14141	0.346653	-221.901
6	1.15152	0.358272	47.9873
6.37931	1.15152	0.358272	48.4935
6.75862	1.15152	0.358272	48.263
7.13793	1.15152	0.358272	47.7249
7.51724	1.15152	0.358272	47.0583
7.89655	1.15152	0.358272	46.3381
8.27586	1.15152	0.358272	45.5956
8.65517	1.15152	0.358272	44.8436
9.03448	1.15152	0.358272	44.0878
9.41379	1.15152	0.358272	43.3304
9.7931	1.15152	0.358272	42.5722
10.1724	1.15152	0.358272	41.8138
10.5517	1.15152	0.358272	41.0552
10.931	1.15152	0.358272	40.2965
11.3103	1.15152	0.358272	39.5376
11.6897	1.15152	0.358272	38.7782
12.069	1.15152	0.358272	38.0179
12.4483	1.15152	0.358272	37.2552
12.8276	1.15152	0.358272	36.4868
13.2069	1.15152	0.358272	35.7047
13.5862	1.15152	0.358272	34.8899
13.9655	1.15152	0.358272	33.9967
14.3448	1.15152	0.358272	32.9159
14.7241	1.15152	0.358272	31.3854
15.1034	1.15152	0.358272	28.7783
15.4828	1.15152	0.358272	23.5924
15.8621	1.15152	0.358272	12.2303
16.2414	1.15152	0.358272	-13.9239
16.6207	1.15152	0.358272	-75.5056
17	1.15152	0.358272	-221.937
6	1.16162	0.370588	47.9555
6.37931	1.16162	0.370588	48.4617
6.75862	1.16162	0.370588	48.2312
7.13793	1.16162	0.370588	47.693
7.51724	1.16162	0.370588	47.0265
7.89655	1.16162	0.370588	46.3063
8.27586	1.16162	0.370588	45.5637
8.65517	1.16162	0.370588	44.8118
9.03448	1.16162	0.370588	44.056
9.41379	1.16162	0.370588	43.2985
9.7931	1.16162	0.370588	42.5404
10.1724	1.16162	0.370588	41.782
10.5517	1.16162	0.370588	41.0234
10.931	1.16162	0.370588	40.2647
11.3103	1.16162	0.370588	39.5058
11.6897	1.16162	0.370588	38.7464
12.069	1.16162	0.370588	37.9861
12.4483	1.16162	0.370588	37.2234
12.8276	1.16162	0.370588	36.455
13.2069	1.16162	0.370588	35.6729
13.5862	1.16162	0.370588	34.8581
13.9655	1.16162	0.370588	33.9649
14.3448	1.16162	0.370588	32.884
14.7241	1.16162	0.370588	31.3536
15.1034	1.16162	0.370588	28.7464
15.4828	1.16162	0.370588	23.5605
15.8621	1.16162	0.370588	12.1985
16.2414	1.16162	0.370588	-13.9557
16.6207	1.16162	0.370588	-75.5375
17	1.16162	0.370588	-221.969
6	1.17172	0.381075	47.9177
6.37931	1.17172	0.381075	48.4239
6.75862	1.17172	0.381075	48.1934
7.13793	1.17172	0.381075	47.6552
7.51724	1.17172	0.381075	46.9887
7.89655	1.17172	0.381075	46.2685
8.27586	1.17172	0.381075	45.5259
8.65517	1.17172	0.381075	44.774
9.03448	1.17172	0.381075	44.0182
9.41379	1.17172	0.381075	43.2607
9.7931	1.17172	0.381075	42.5026
10.1724	1.17172	0.381075	41.7442
10.5517	1.17172	0.381075	40.9856
10.931	1.17172	0.381075	40.2269
11.3103	1.17172	0.381075	39.468
11.6897	1.17172	0.381075	38.7086
12.069	1.17172	0.381075	37.9483
12.4483	1.17172	0.381075	37.1856
12.8276	1.17172	0.381075	36.4172
13.2069	1.17172	0.381075	35.6351
13.5862	1.17172	0.381075	34.8203
13.9655	1.17172	0.381075	33.9271
14.3448	1.17172	0.381075	32.8462
14.7241	1.17172	0.381075	31.3158
15.1034	1.17172	0.381075	28.7087
15.4828	1.17172	0.381075	23.5227
15.8621	1.17172	0.381075	12.1607
16.2414	1.17172	0.381075	-13.9935
16.6207	1.17172	0.381075	-75.5753
17	1.17172	0.381075	-222.007
6	1.18182	0.393716	47.8892
6.37931	1.18182	0.393716	48.3954
6.75862	1.18182	0.393716	48.1649
7.13793	1.18182	0.393716	47.6268
7.51724	1.18182	0.393716	46.9602
7.89655	1.18182	0.393716	46.2401
8.27586	1.18182	0.393716	45.4975
8.65517	1.18182	0.393716	44.7456
9.03448	1.18182	0.393716	43.9897
9.41379	1.18182	0.393716	43.2323
9.7931	1.18182	0.393716	42.4741
10.1724	1.18182	0.393716	41.7157
10.5517	1.18182	0.393716	40.9571
10.931	1.18182	0.393716	40.1984
11.3103	1.18182	0.393716	39.4395
11.6897	1.18182	0.393716	38.6802
12.069	1.18182	0.393716	37.9199
12.4483	1.18182	0.393716	37.1571
12.8276	1.18182	0.393716	36.3887
13.2069	1.18182	0.393716	35.6067
13.5862	1.18182	0.393716	34.7919
13.9655	1.18182	0.393716	33.8987
14.3448	1.18182	0.393716	32.8178
14.7241	1.18182	0.393716	31.2874
15.1034	1.18182	0.393716	28.6802
15.4828	1.18182	0.393716	23.4943
15.8621	1.18182	0.393716	12.1322
16.2414	1.18182	0.393716	-14.022
16.6207	1.18182	0.393716	-75.6037
17	1.18182	0.393716	-222.035
6	1.19192	0.403376	47.8502
6.37931	1.19192	0.403376	48.3564
6.75862	1.19192	0.403376	48.1258
7.13793	1.19192	0.403376	47.5877
7.51724	1.19192	0.403376	46.9212
7.89655	1.19192	0.403376	46.201
8.27586	1.19192	0.403376	45.4584
8.65517	1.19192	0.403376	44.7065
9.03448	1.19192	0.403376	43.9507
9.41379	1.19192	0.403376	43.1932
9.7931	1.19192	0.403376	42.4351
10.1724	1.19192	0.403376	41.6766
10.5517	1.19192	0.403376	40.918
10.931	1.19192	0.403376	40.1593
11.3103	1.19192	0.403376	39.4004
11.6897	1.19192	0.403376	38.6411
12.069	1.19192	0.403376	37.8808
12.4483	1.19192	0.403376	37.1181
12.8276	1.19192	0.403376	36.3497
13.2069	1.19192	0.403376	35.5676
13.5862	1.19192	0.403376	34.7528
13.9655	1.19192	0.403376	33.8596
14.3448	1.19192	0.403376	32.7787
14.7241	1.19192	0.403376	31.2483
15.1034	1.19192	0.403376	28.6411
15.4828	1.19192	0.403376	23.4552
15.8621	1.19192	0.403376	12.0931
16.2414	1.19192	0.403376	-14.0611
16.6207	1.19192	0.403376	-75.6428
17	1.19192	0.403376	-222.074
6	1.20202	0.416589	47.8252
6.37931	1.20202	0.416589	48.3313
6.75862	1.20202	0.416589	48.1008
7.13793	1.20202	0.416589	47.5627
7.51724	1.20202	0.416589	46.8962
7.89655	1.20202	0.416589	46.176
8.27586	1.20202	0.416589	45.4334
8.65517	1.20202	0.416589	44.6815
9.03448	1.20202	0.416589	43.9257
9.41379	1.20202	0.416589	43.1682
9.7931	1.20202	0.416589	42.4101
10.1724	1.20202	0.416589	41.6516
10.5517	1.20202	0.416589	40.893
10.931	1.20202	0.416589	40.1343
11.3103	1.20202	0.416589	39.3754
11.6897	1.20202	0.416589	38.6161
12.069	1.20202	0.416589	37.8558
12.4483	1.20202	0.416589	37.0931
12.8276	1.20202	0.416589	36.3246
13.2069	1.20202	0.416589	35.5426
13.5862	1.20202	0.416589	34.7278
13.9655	1.20202	0.416589	33.8346
14.3448	1.20202	0.416589	32.7537
14.7241	1.20202	0.416589	31.2233
15.1034	1.20202	0.416589	28.6161
15.4828	1.20202	0.416589	23.4302
15.8621	1.20202	0.416589	12.0681
16.2414	1.20202	0.416589	-14.0861
16.6207	1.20202	0.416589	-75.6678
17	1.20202	0.416589	-222.099
6	1.21212	0.425643	47.7851
6.37931	1.21212	0.425643	48.2913
6.75862	1.21212	0.425643	48.0607
7.13793	1.21212	0.425643	47.5226
7.51724	1.21212	0.425643	46.8561
7.89655	1.21212	0.425643	46.1359
8.27586	1.21212	0.425643	45.3933
8.65517	1.21212	0.425643	44.6414
9.03448	1.21212	0.425643	43.8856
9.41379	1.21212	0.425643	43.1281
9.7931	1.21212	0.425643	42.37
10.1724	1.21212	0.425643	41.6115
10.5517	1.21212	0.425643	40.8529
10.931	1.21212	0.425643	40.0942
11.3103	1.21212	0.425643	39.3353
11.6897	1.21212	0.425643	38.576
12.069	1.21212	0.425643	37.8157
12.4483	1.21212	0.425643	37.053
12.8276	1.21212	0.425643	36.2845
13.2069	1.21212	0.425643	35.5025
13.5862	1.21212	0.425643	34.6877
13.9655	1.21212	0.425643	33.7945
14.3448	1.21212	0.425643	32.7136
14.7241	1.21212	0.425643	31.1832
15.1034	1.21212	0.425643	28.576
15.4828	1.21212	0.425643	23.3901
15.8621	1.21212	0.425643	12.028
16.2414	1.21212	0.425643	-14.1262
16.6207	1.21212	0.425643	-75.7079
17	1.21212	0.425643	-222.139
6	1.22222	0.438323	47.7588
6.37931	1.22222	0.438323	48.265
6.75862	1.22222	0.438323	48.0344
7.13793	1.22222	0.438323	47.4963
7.51724	1.22222	0.438323	46.8298
7.89655	1.22222	0.438323	46.1096
8.27586	1.22222	0.438323	45.367
8.65517	1.22222	0.438323	44.6151
9.03448	1.22222	0.438323	43.8593
9.41379	1.22222	0.438323	43.1018
9.7931	1.22222	0.438323	42.3437
10.1724	1.22222	0.438323	41.5852
10.5517	1.22222	0.438323	40.8266
10.931	1.22222	0.438323	40.0679
11.3103	1.22222	0.438323	39.309
11.6897	1.22222	0.438323	38.5497
12.069	1.22222	0.438323	37.7894
12.4483	1.22222	0.438323	37.0267
12.8276	1.22222	0.438323	36.2583
13.2069	1.22222	0.438323	35.4762
13.5862	1.22222	0.438323	34.6614
13.9655	1.22222	0.438323	33.7682
14.3448	1.22222	0.438323	32.6873
14.7241	1.22222	0.438323	31.1569
15.1034	1.22222	0.438323	28.5497
15.4828	1.22222	0.438323	23.3638
15.8621	1.22222	0.438323	12.0017
16.2414	1.22222	0.438323	-14.1525
16.6207	1.22222	0.438323	-75.7342
17	1.22222	0.438323	-222.166
6	1.23232	0.449512	47.7272
6.37931	1.23232	0.449512	48.2334
6.75862	1.23232	0.449512	48.0029
7.13793	1.23232	0.449512	47.4648
7.51724	1.23232	0.449512	46.7982
7.89655	1.23232	0.449512	46.078
8.27586	1.23232	0.449512	45.3354
8.65517	1.23232	0.449512	44.5835
9.03448	1.23232	0.449512	43.8277
9.41379	1.23232	0.449512	43.0702
9.7931	1.23232	0.449512	42.3121
10.1724	1.23232	0.449512	41.5537
10.5517	1.23232	0.449512	40.7951
10.931	1.23232	0.449512	40.0364
11.3103	1.23232	0.449512	39.2775
11.6897	1.23232	0.449512	38.5181
12.069	1.23232	0.449512	37.7578
12.4483	1.23232	0.449512	36.9951
12.8276	1.23232	0.449512	36.2267
13.2069	1.23232	0.449512	35.4446
13.5862	1.23232	0.449512	34.6298
13.9655	1.23232	0.449512	33.7366
14.3448	1.23232	0.449512	32.6558
14.7241	1.23232	0.449512	31.1253
15.1034	1.23232	0.449512	28.5182
15.4828	1.23232	0.449512	23.3323
15.8621	1.23232	0.449512	11.9702
16.2414	1.23232	0.449512	-14.184
16.6207	1.23232	0.449512	-75.7657
17	1.23232	0.449512	-222.197
6	1.24242	0.460533	47.6952
6.37931	1.24242	0.460533	48.2014
6.75862	1.24242	0.460533	47.9708
7.13793	1.24242	0.460533	47.4327
7.51724	1.24242	0.460533	46.7662
7.89655	1.24242	0.460533	46.046
8.27586	1.24242	0.460533	45.3034
8.65517	1.24242	0.460533	44.5515
9.03448	1.24242	0.460533	43.7957
9.41379	1.24242	0.460533	43.0382
9.7931	1.24242	0.460533	42.2801
10.1724	1.24242	0.460533	41.5216
10.5517	1.24242	0.460533	40.763
10.931	1.24242	0.460533	40.0043
11.3103	1.24242	0.460533	39.2454
11.6897	1.24242	0.460533	38.4861
12.069	1.24242	0.460533	37.7258
12.4483	1.24242	0.460533	36.9631
12.8276	1.24242	0.460533	36.1946
13.2069	1.24242	0.460533	35.4126
13.5862	1.24242	0.460533	34.5978
13.9655	1.24242	0.460533	33.7046
14.3448	1.24242	0.460533	32.6237
14.7241	1.24242	0.460533	31.0933
15.1034	1.24242	0.460533	28.4861
15.4828	1.24242	0.460533	23.3002
15.8621	1.24242	0.460533	11.9381
16.2414	1.24242	0.460533	-14.2161
16.6207	1.24242	0.460533	-75.7978
17	1.24242	0.460533	-222.229
6	1.25253	0.471416	47.6627
6.37931	1.25253	0.471416	48.1689
6.75862	1.25253	0.471416	47.9384
7.13793	1.25253	0.471416	47.4002
7.51724	1.25253	0.471416	46.7337
7.89655	1.25253	0.471416	46.0135
8.27586	1.25253	0.471416	45.2709
8.65517	1.25253	0.471416	44.519
9.03448	1.25253	0.471416	43.7632
9.41379	1.25253	0.471416	43.0057
9.7931	1.25253	0.471416	42.2476
10.1724	1.25253	0.471416	41.4892
10.5517	1.25253	0.471416	40.7306
10.931	1.25253	0.471416	39.9719
11.3103	1.25253	0.471416	39.2129
11.6897	1.25253	0.471416	38.4536
12.069	1.25253	0.471416	37.6933
12.4483	1.25253	0.471416	36.9306
12.8276	1.25253	0.471416	36.1622
13.2069	1.25253	0.471416	35.3801
13.5862	1.25253	0.471416	34.5653
13.9655	1.25253	0.471416	33.6721
14.3448	1.25253	0.471416	32.5912
14.7241	1.25253	0.471416	31.0608
15.1034	1.25253	0.471416	28.4536
15.4828	1.25253	0.471416	23.2677
15.8621	1.25253	0.471416	11.9057
16.2414	1.25253	0.471416	-14.2485
16.6207	1.25253	0.471416	-75.8303
17	1.25253	0.471416	-222.262
6	1.26263	0.483465	47.6343
6.37931	1.26263	0.483465	48.1405
6.75862	1.26263	0.483465	47.91
7.13793	1.26263	0.483465	47.3719
7.51724	1.26263	0.483465	46.7053
7.89655	1.26263	0.483465	45.9851
8.27586	1.26263	0.483465	45.2426
8.65517	1.26263	0.483465	44.4907
9.03448	1.26263	0.483465	43.7348
9.41379	1.26263	0.483465	42.9774
9.7931	1.26263	0.483465	42.2192
10.1724	1.26263	0.483465	41.4608
10.5517	1.26263	0.483465	40.7022
10.931	1.26263	0.483465	39.9435
11.3103	1.26263	0.483465	39.1846
11.6897	1.26263	0.483465	38.4253
12.069	1.26263	0.483465	37.6649
12.4483	1.26263	0.483465	36.9022
12.8276	1.26263	0.483465	36.1338
13.2069	1.26263	0.483465	35.3517
13.5862	1.26263	0.483465	34.5369
13.9655	1.26263	0.483465	33.6438
14.3448	1.26263	0.483465	32.5629
14.7241	1.26263	0.483465	31.0324
15.1034	1.26263	0.483465	28.4253
15.4828	1.26263	0.483465	23.2394
15.8621	1.26263	0.483465	11.8773
16.2414	1.26263	0.483465	-14.2769
16.6207	1.26263	0.483465	-75.8586
17	1.26263	0.483465	-222.29
6	1.27273	0.494151	47.601
6.37931	1.27273	0.494151	48.1072
6.75862	1.27273	0.494151	47.8767
7.13793	1.27273	0.494151	47.3386
7.51724	1.27273	0.494151	46.672
7.89655	1.27273	0.494151	45.9518
8.27586	1.27273	0.494151	45.2093
8.65517	1.27273	0.494151	44.4574
9.03448	1.27273	0.494151	43.7015
9.41379	1.27273	0.494151	42.9441
9.7931	1.27273	0.494151	42.1859
10.1724	1.27273	0.494151	41.4275
10.5517	1.27273	0.494151	40.6689
10.931	1.27273	0.494151	39.9102
11.3103	1.27273	0.494151	39.1513
11.6897	1.27273	0.494151	38.392
12.069	1.27273	0.494151	37.6316
12.4483	1.27273	0.494151	36.8689
12.8276	1.27273	0.494151	36.1005
13.2069	1.27273	0.494151	35.3184
13.5862	1.27273	0.494151	34.5036
13.9655	1.27273	0.494151	33.6105
14.3448	1.27273	0.494151	32.5296
14.7241	1.27273	0.494151	30.9991
15.1034	1.27273	0.494151	28.392
15.4828	1.27273	0.494151	23.2061
15.8621	1.27273	0.494151	11.844
16.2414	1.27273	0.494151	-14.3102
16.6207	1.27273	0.494151	-75.8919
17	1.27273	0.494151	-222.323
6	1.28283	0.506048	47.5718
6.37931	1.28283	0.506048	48.078
6.75862	1.28283	0.506048	47.8475
7.13793	1.28283	0.506048	47.3094
7.51724	1.28283	0.506048	46.6428
7.89655	1.28283	0.506048	45.9226
8.27586	1.28283	0.506048	45.1801
8.65517	1.28283	0.506048	44.4281
9.03448	1.28283	0.506048	43.6723
9.41379	1.28283	0.506048	42.9149
9.7931	1.28283	0.506048	42.1567
10.1724	1.28283	0.506048	41.3983
10.5517	1.28283	0.506048	40.6397
10.931	1.28283	0.506048	39.881
11.3103	1.28283	0.506048	39.1221
11.6897	1.28283	0.506048	38.3627
12.069	1.28283	0.506048	37.6024
12.4483	1.28283	0.506048	36.8397
12.8276	1.28283	0.506048	36.0713
13.2069	1.28283	0.506048	35.2892
13.5862	1.28283	0.506048	34.4744
13.9655	1.28283	0.506048	33.5812
14.3448	1.28283	0.506048	32.5004
14.7241	1.28283	0.506048	30.9699
15.1034	1.28283	0.506048	28.3628
15.4828	1.28283	0.506048	23.1769
15.8621	1.28283	0.506048	11.8148
16.2414	1.28283	0.506048	-14.3394
16.6207	1.28283	0.506048	-75.9211
17	1.28283	0.506048	-222.353
6	1.29293	0.516632	47.5377
6.37931	1.29293	0.516632	48.0439
6.75862	1.29293	0.516632	47.8134
7.13793	1.29293	0.516632	47.2753
7.51724	1.29293	0.516632	46.6087
7.89655	1.29293	0.516632	45.8886
8.27586	1.29293	0.516632	45.146
8.65517	1.29293	0.516632	44.3941
9.03448	1.29293	0.516632	43.6382
9.41379	1.29293	0.516632	42.8808
9.7931	1.29293	0.516632	42.1226
10.1724	1.29293	0.516632	41.3642
10.5517	1.29293	0.516632	40.6056
10.931	1.29293	0.516632	39.8469
11.3103	1.29293	0.516632	39.088
11.6897	1.29293	0.516632	38.3287
12.069	1.29293	0.516632	37.5683
12.4483	1.29293	0.516632	36.8056
12.8276	1.29293	0.516632	36.0372
13.2069	1.29293	0.516632	35.2551
13.5862	1.29293	0.516632	34.4403
13.9655	1.29293	0.516632	33.5472
14.3448	1.29293	0.516632	32.4663
14.7241	1.29293	0.516632	30.9358
15.1034	1.29293	0.516632	28.3287
15.4828	1.29293	0.516632	23.1428
15.8621	1.29293	0.516632	11.7807
16.2414	1.29293	0.516632	-14.3735
16.6207	1.29293	0.516632	-75.9552
17	1.29293	0.516632	-222.387
6	1.30303	0.52973	47.5121
6.37931	1.30303	0.52973	48.0183
6.75862	1.30303	0.52973	47.7878
7.13793	1.30303	0.52973	47.2497
7.51724	1.30303	0.52973	46.5831
7.89655	1.30303	0.52973	45.8629
8.27586	1.30303	0.52973	45.1204
8.65517	1.30303	0.52973	44.3684
9.03448	1.30303	0.52973	43.6126
9.41379	1.30303	0.52973	42.8552
9.7931	1.30303	0.52973	42.097
10.1724	1.30303	0.52973	41.3386
10.5517	1.30303	0.52973	40.58
10.931	1.30303	0.52973	39.8213
11.3103	1.30303	0.52973	39.0624
11.6897	1.30303	0.52973	38.3031
12.069	1.30303	0.52973	37.5427
12.4483	1.30303	0.52973	36.78
12.8276	1.30303	0.52973	36.0116
13.2069	1.30303	0.52973	35.2295
13.5862	1.30303	0.52973	34.4147
13.9655	1.30303	0.52973	33.5216
14.3448	1.30303	0.52973	32.4407
14.7241	1.30303	0.52973	30.9102
15.1034	1.30303	0.52973	28.3031
15.4828	1.30303	0.52973	23.1172
15.8621	1.30303	0.52973	11.7551
16.2414	1.30303	0.52973	-14.3991
16.6207	1.30303	0.52973	-75.9808
17	1.30303	0.52973	-222.412
6	1.31313	0.540287	47.4773
6.37931	1.31313	0.540287	47.9835
6.75862	1.31313	0.540287	47.753
7.13793	1.31313	0.540287	47.2148
7.51724	1.31313	0.540287	46.5483
7.89655	1.31313	0.540287	45.8281
8.27586	1.31313	0.540287	45.0855
8.65517	1.31313	0.540287	44.3336
9.03448	1.31313	0.540287	43.5778
9.41379	1.31313	0.540287	42.8203
9.7931	1.31313	0.540287	42.0622
10.1724	1.31313	0.540287	41.3037
10.5517	1.31313	0.540287	40.5452
10.931	1.31313	0.540287	39.7865
11.3103	1.31313	0.540287	39.0275
11.6897	1.31313	0.540287	38.2682
12.069	1.31313	0.540287	37.5079
12.4483	1.31313	0.540287	36.7452
12.8276	1.31313	0.540287	35.9768
13.2069	1.31313	0.540287	35.1947
13.5862	1.31313	0.540287	34.3799
13.9655	1.31313	0.540287	33.4867
14.3448	1.31313	0.540287	32.4058
14.7241	1.31313	0.540287	30.8754
15.1034	1.31313	0.540287	28.2682
15.4828	1.31313	0.540287	23.0823
15.8621	1.31313	0.540287	11.7203
16.2414	1.31313	0.540287	-14.4339
16.6207	1.31313	0.540287	-76.0157
17	1.31313	0.540287	-222.447
6	1.32323	0.552123	47.4465
6.37931	1.32323	0.552123	47.9527
6.75862	1.32323	0.552123	47.7221
7.13793	1.32323	0.552123	47.184
7.51724	1.32323	0.552123	46.5175
7.89655	1.32323	0.552123	45.7973
8.27586	1.32323	0.552123	45.0547
8.65517	1.32323	0.552123	44.3028
9.03448	1.32323	0.552123	43.547
9.41379	1.32323	0.552123	42.7895
9.7931	1.32323	0.552123	42.0314
10.1724	1.32323	0.552123	41.2729
10.5517	1.32323	0.552123	40.5143
10.931	1.32323	0.552123	39.7556
11.3103	1.32323	0.552123	38.9967
11.6897	1.32323	0.552123	38.2374
12.069	1.32323	0.552123	37.4771
12.4483	1.32323	0.552123	36.7144
12.8276	1.32323	0.552123	35.9459
13.2069	1.32323	0.552123	35.1639
13.5862	1.32323	0.552123	34.3491
13.9655	1.32323	0.552123	33.4559
14.3448	1.32323	0.552123	32.375
14.7241	1.32323	0.552123	30.8446
15.1034	1.32323	0.552123	28.2374
15.4828	1.32323	0.552123	23.0515
15.8621	1.32323	0.552123	11.6894
16.2414	1.32323	0.552123	-14.4648
16.6207	1.32323	0.552123	-76.0465
17	1.32323	0.552123	-222.478
6	1.33333	0.56525	47.4196
6.37931	1.33333	0.56525	47.9258
6.75862	1.33333	0.56525	47.6953
7.13793	1.33333	0.56525	47.1571
7.51724	1.33333	0.56525	46.4906
7.89655	1.33333	0.56525	45.7704
8.27586	1.33333	0.56525	45.0278
8.65517	1.33333	0.56525	44.2759
9.03448	1.33333	0.56525	43.5201
9.41379	1.33333	0.56525	42.7626
9.7931	1.33333	0.56525	42.0045
10.1724	1.33333	0.56525	41.246
10.5517	1.33333	0.56525	40.4875
10.931	1.33333	0.56525	39.7287
11.3103	1.33333	0.56525	38.9698
11.6897	1.33333	0.56525	38.2105
12.069	1.33333	0.56525	37.4502
12.4483	1.33333	0.56525	36.6875
12.8276	1.33333	0.56525	35.9191
13.2069	1.33333	0.56525	35.137
13.5862	1.33333	0.56525	34.3222
13.9655	1.33333	0.56525	33.429
14.3448	1.33333	0.56525	32.3481
14.7241	1.33333	0.56525	30.8177
15.1034	1.33333	0.56525	28.2105
15.4828	1.33333	0.56525	23.0246
15.8621	1.33333	0.56525	11.6625
16.2414	1.33333	0.56525	-14.4917
16.6207	1.33333	0.56525	-76.0734
17	1.33333	0.56525	-222.505
6	1.34343	0.575895	47.3836
6.37931	1.34343	0.575895	47.8898
6.75862	1.34343	0.575895	47.6593
7.13793	1.34343	0.575895	47.1211
7.51724	1.34343	0.575895	46.4546
7.89655	1.34343	0.575895	45.7344
8.27586	1.34343	0.575895	44.9918
8.65517	1.34343	0.575895	44.2399
9.03448	1.34343	0.575895	43.4841
9.41379	1.34343	0.575895	42.7266
9.7931	1.34343	0.575895	41.9685
10.1724	1.34343	0.575895	41.21
10.5517	1.34343	0.575895	40.4515
10.931	1.34343	0.575895	39.6927
11.3103	1.34343	0.575895	38.9338
11.6897	1.34343	0.575895	38.1745
12.069	1.34343	0.575895	37.4142
12.4483	1.34343	0.575895	36.6515
12.8276	1.34343	0.575895	35.8831
13.2069	1.34343	0.575895	35.101
13.5862	1.34343	0.575895	34.2862
13.9655	1.34343	0.575895	33.393
14.3448	1.34343	0.575895	32.3121
14.7241	1.34343	0.575895	30.7817
15.1034	1.34343	0.575895	28.1745
15.4828	1.34343	0.575895	22.9886
15.8621	1.34343	0.575895	11.6265
16.2414	1.34343	0.575895	-14.5277
16.6207	1.34343	0.575895	-76.1094
17	1.34343	0.575895	-222.541
6	1.35354	0.589118	47.3559
6.37931	1.35354	0.589118	47.8621
6.75862	1.35354	0.589118	47.6315
7.13793	1.35354	0.589118	47.0934
7.51724	1.35354	0.589118	46.4269
7.89655	1.35354	0.589118	45.7067
8.27586	1.35354	0.589118	44.9641
8.65517	1.35354	0.589118	44.2122
9.03448	1.35354	0.589118	43.4564
9.41379	1.35354	0.589118	42.6989
9.7931	1.35354	0.589118	41.9408
10.1724	1.35354	0.589118	41.1823
10.5517	1.35354	0.589118	40.4237
10.931	1.35354	0.589118	39.665
11.3103	1.35354	0.589118	38.9061
11.6897	1.35354	0.589118	38.1468
12.069	1.35354	0.589118	37.3865
12.4483	1.35354	0.589118	36.6238
12.8276	1.35354	0.589118	35.8554
13.2069	1.35354	0.589118	35.0733
13.5862	1.35354	0.589118	34.2585
13.9655	1.35354	0.589118	33.3653
14.3448	1.35354	0.589118	32.2844
14.7241	1.35354	0.589118	30.754
15.1034	1.35354	0.589118	28.1468
15.4828	1.35354	0.589118	22.9609
15.8621	1.35354	0.589118	11.5988
16.2414	1.35354	0.589118	-14.5554
16.6207	1.35354	0.589118	-76.1371
17	1.35354	0.589118	-222.569
6	1.36364	0.601152	47.3234
6.37931	1.36364	0.601152	47.8296
6.75862	1.36364	0.601152	47.599
7.13793	1.36364	0.601152	47.0609
7.51724	1.36364	0.601152	46.3944
7.89655	1.36364	0.601152	45.6742
8.27586	1.36364	0.601152	44.9316
8.65517	1.36364	0.601152	44.1797
9.03448	1.36364	0.601152	43.4239
9.41379	1.36364	0.601152	42.6664
9.7931	1.36364	0.601152	41.9083
10.1724	1.36364	0.601152	41.1498
10.5517	1.36364	0.601152	40.3912
10.931	1.36364	0.601152	39.6325
11.3103	1.36364	0.601152	38.8736
11.6897	1.36364	0.601152	38.1143
12.069	1.36364	0.601152	37.354
12.4483	1.36364	0.601152	36.5913
12.8276	1.36364	0.601152	35.8229
13.2069	1.36364	0.601152	35.0408
13.5862	1.36364	0.601152	34.226
13.9655	1.36364	0.601152	33.3328
14.3448	1.36364	0.601152	32.2519
14.7241	1.36364	0.601152	30.7215
15.1034	1.36364	0.601152	28.1143
15.4828	1.36364	0.601152	22.9284
15.8621	1.36364	0.601152	11.5663
16.2414	1.36364	0.601152	-14.5879
16.6207	1.36364	0.601152	-76.1696
17	1.36364	0.601152	-222.601
6	1.37374	0.614529	47.2948
6.37931	1.37374	0.614529	47.801
6.75862	1.37374	0.614529	47.5704
7.13793	1.37374	0.614529	47.0323
7.51724	1.37374	0.614529	46.3658
7.89655	1.37374	0.614529	45.6456
8.27586	1.37374	0.614529	44.903
8.65517	1.37374	0.614529	44.1511
9.03448	1.37374	0.614529	43.3953
9.41379	1.37374	0.614529	42.6378
9.7931	1.37374	0.614529	41.8797
10.1724	1.37374	0.614529	41.1212
10.5517	1.37374	0.614529	40.3627
10.931	1.37374	0.614529	39.6039
11.3103	1.37374	0.614529	38.845
11.6897	1.37374	0.614529	38.0857
12.069	1.37374	0.614529	37.3254
12.4483	1.37374	0.614529	36.5627
12.8276	1.37374	0.614529	35.7943
13.2069	1.37374	0.614529	35.0122
13.5862	1.37374	0.614529	34.1974
13.9655	1.37374	0.614529	33.3042
14.3448	1.37374	0.614529	32.2233
14.7241	1.37374	0.614529	30.6929
15.1034	1.37374	0.614529	28.0857
15.4828	1.37374	0.614529	22.8998
15.8621	1.37374	0.614529	11.5377
16.2414	1.37374	0.614529	-14.6165
16.6207	1.37374	0.614529	-76.1982
17	1.37374	0.614529	-222.63
6	1.38384	0.626741	47.2614
6.37931	1.38384	0.626741	47.7676
6.75862	1.38384	0.626741	47.537
7.13793	1.38384	0.626741	46.9989
7.51724	1.38384	0.626741	46.3324
7.89655	1.38384	0.626741	45.6122
8.27586	1.38384	0.626741	44.8696
8.65517	1.38384	0.626741	44.1177
9.03448	1.38384	0.626741	43.3619
9.41379	1.38384	0.626741	42.6044
9.7931	1.38384	0.626741	41.8463
10.1724	1.38384	0.626741	41.0878
10.5517	1.38384	0.626741	40.3292
10.931	1.38384	0.626741	39.5705
11.3103	1.38384	0.626741	38.8116
11.6897	1.38384	0.626741	38.0523
12.069	1.38384	0.626741	37.292
12.4483	1.38384	0.626741	36.5293
12.8276	1.38384	0.626741	35.7609
13.2069	1.38384	0.626741	34.9788
13.5862	1.38384	0.626741	34.164
13.9655	1.38384	0.626741	33.2708
14.3448	1.38384	0.626741	32.1899
14.7241	1.38384	0.626741	30.6595
15.1034	1.38384	0.626741	28.0523
15.4828	1.38384	0.626741	22.8664
15.8621	1.38384	0.626741	11.5043
16.2414	1.38384	0.626741	-14.6499
16.6207	1.38384	0.626741	-76.2316
17	1.38384	0.626741	-222.663
6	1.39394	0.64032	47.2318
6.37931	1.39394	0.64032	47.738
6.75862	1.39394	0.64032	47.5075
7.13793	1.39394	0.64032	46.9694
7.51724	1.39394	0.64032	46.3028
7.89655	1.39394	0.64032	45.5827
8.27586	1.39394	0.64032	44.8401
8.65517	1.39394	0.64032	44.0882
9.03448	1.39394	0.64032	43.3323
9.41379	1.39394	0.64032	42.5749
9.7931	1.39394	0.64032	41.8167
10.1724	1.39394	0.64032	41.0583
10.5517	1.39394	0.64032	40.2997
10.931	1.39394	0.64032	39.541
11.3103	1.39394	0.64032	38.7821
11.6897	1.39394	0.64032	38.0228
12.069	1.39394	0.64032	37.2624
12.4483	1.39394	0.64032	36.4997
12.8276	1.39394	0.64032	35.7313
13.2069	1.39394	0.64032	34.9492
13.5862	1.39394	0.64032	34.1344
13.9655	1.39394	0.64032	33.2413
14.3448	1.39394	0.64032	32.1604
14.7241	1.39394	0.64032	30.6299
15.1034	1.39394	0.64032	28.0228
15.4828	1.39394	0.64032	22.8369
15.8621	1.39394	0.64032	11.4748
16.2414	1.39394	0.64032	-14.6794
16.6207	1.39394	0.64032	-76.2611
17	1.39394	0.64032	-222.693
6	1.40404	0.654019	47.2018
6.37931	1.40404	0.654019	47.708
6.75862	1.40404	0.654019	47.4775
7.13793	1.40404	0.654019	46.9394
7.51724	1.40404	0.654019	46.2728
7.89655	1.40404	0.654019	45.5526
8.27586	1.40404	0.654019	44.8101
8.65517	1.40404	0.654019	44.0581
9.03448	1.40404	0.654019	43.3023
9.41379	1.40404	0.654019	42.5449
9.7931	1.40404	0.654019	41.7867
10.1724	1.40404	0.654019	41.0283
10.5517	1.40404	0.654019	40.2697
10.931	1.40404	0.654019	39.511
11.3103	1.40404	0.654019	38.7521
11.6897	1.40404	0.654019	37.9927
12.069	1.40404	0.654019	37.2324
12.4483	1.40404	0.654019	36.4697
12.8276	1.40404	0.654019	35.7013
13.2069	1.40404	0.654019	34.9192
13.5862	1.40404	0.654019	34.1044
13.9655	1.40404	0.654019	33.2112
14.3448	1.40404	0.654019	32.1304
14.7241	1.40404	0.654019	30.5999
15.1034	1.40404	0.654019	27.9928
15.4828	1.40404	0.654019	22.8069
15.8621	1.40404	0.654019	11.4448
16.2414	1.40404	0.654019	-14.7094
16.6207	1.40404	0.654019	-76.2911
17	1.40404	0.654019	-222.723
6	1.41414	0.667848	47.1713
6.37931	1.41414	0.667848	47.6775
6.75862	1.41414	0.667848	47.4469
7.13793	1.41414	0.667848	46.9088
7.51724	1.41414	0.667848	46.2423
7.89655	1.41414	0.667848	45.5221
8.27586	1.41414	0.667848	44.7795
8.65517	1.41414	0.667848	44.0276
9.03448	1.41414	0.667848	43.2718
9.41379	1.41414	0.667848	42.5143
9.7931	1.41414	0.667848	41.7562
10.1724	1.41414	0.667848	40.9977
10.5517	1.41414	0.667848	40.2391
10.931	1.41414	0.667848	39.4804
11.3103	1.41414	0.667848	38.7215
11.6897	1.41414	0.667848	37.9622
12.069	1.41414	0.667848	37.2019
12.4483	1.41414	0.667848	36.4392
12.8276	1.41414	0.667848	35.6708
13.2069	1.41414	0.667848	34.8887
13.5862	1.41414	0.667848	34.0739
13.9655	1.41414	0.667848	33.1807
14.3448	1.41414	0.667848	32.0998
14.7241	1.41414	0.667848	30.5694
15.1034	1.41414	0.667848	27.9622
15.4828	1.41414	0.667848	22.7763
15.8621	1.41414	0.667848	11.4142
16.2414	1.41414	0.667848	-14.74
16.6207	1.41414	0.667848	-76.3217
17	1.41414	0.667848	-222.753
6	1.42424	0.680555	47.1358
6.37931	1.42424	0.680555	47.642
6.75862	1.42424	0.680555	47.4114
7.13793	1.42424	0.680555	46.8733
7.51724	1.42424	0.680555	46.2068
7.89655	1.42424	0.680555	45.4866
8.27586	1.42424	0.680555	44.744
8.65517	1.42424	0.680555	43.9921
9.03448	1.42424	0.680555	43.2363
9.41379	1.42424	0.680555	42.4788
9.7931	1.42424	0.680555	41.7207
10.1724	1.42424	0.680555	40.9622
10.5517	1.42424	0.680555	40.2036
10.931	1.42424	0.680555	39.4449
11.3103	1.42424	0.680555	38.686
11.6897	1.42424	0.680555	37.9267
12.069	1.42424	0.680555	37.1664
12.4483	1.42424	0.680555	36.4037
12.8276	1.42424	0.680555	35.6352
13.2069	1.42424	0.680555	34.8532
13.5862	1.42424	0.680555	34.0384
13.9655	1.42424	0.680555	33.1452
14.3448	1.42424	0.680555	32.0643
14.7241	1.42424	0.680555	30.5339
15.1034	1.42424	0.680555	27.9267
15.4828	1.42424	0.680555	22.7408
15.8621	1.42424	0.680555	11.3787
16.2414	1.42424	0.680555	-14.7755
16.6207	1.42424	0.680555	-76.3572
17	1.42424	0.680555	-222.789
6	1.43434	0.695939	47.1085
6.37931	1.43434	0.695939	47.6147
6.75862	1.43434	0.695939	47.3842
7.13793	1.43434	0.695939	46.8461
7.51724	1.43434	0.695939	46.1795
7.89655	1.43434	0.695939	45.4593
8.27586	1.43434	0.695939	44.7168
8.65517	1.43434	0.695939	43.9649
9.03448	1.43434	0.695939	43.209
9.41379	1.43434	0.695939	42.4516
9.7931	1.43434	0.695939	41.6934
10.1724	1.43434	0.695939	40.935
10.5517	1.43434	0.695939	40.1764
10.931	1.43434	0.695939	39.4177
11.3103	1.43434	0.695939	38.6588
11.6897	1.43434	0.695939	37.8995
12.069	1.43434	0.695939	37.1391
12.4483	1.43434	0.695939	36.3764
12.8276	1.43434	0.695939	35.608
13.2069	1.43434	0.695939	34.8259
13.5862	1.43434	0.695939	34.0111
13.9655	1.43434	0.695939	33.118
14.3448	1.43434	0.695939	32.0371
14.7241	1.43434	0.695939	30.5066
15.1034	1.43434	0.695939	27.8995
15.4828	1.43434	0.695939	22.7136
15.8621	1.43434	0.695939	11.3515
16.2414	1.43434	0.695939	-14.8027
16.6207	1.43434	0.695939	-76.3844
17	1.43434	0.695939	-222.816
6	1.44444	0.708957	47.0718
6.37931	1.44444	0.708957	47.578
6.75862	1.44444	0.708957	47.3474
7.13793	1.44444	0.708957	46.8093
7.51724	1.44444	0.708957	46.1428
7.89655	1.44444	0.708957	45.4226
8.27586	1.44444	0.708957	44.68
8.65517	1.44444	0.708957	43.9281
9.03448	1.44444	0.708957	43.1723
9.41379	1.44444	0.708957	42.4148
9.7931	1.44444	0.708957	41.6567
10.1724	1.44444	0.708957	40.8982
10.5517	1.44444	0.708957	40.1396
10.931	1.44444	0.708957	39.3809
11.3103	1.44444	0.708957	38.622
11.6897	1.44444	0.708957	37.8627
12.069	1.44444	0.708957	37.1024
12.4483	1.44444	0.708957	36.3397
12.8276	1.44444	0.708957	35.5712
13.2069	1.44444	0.708957	34.7892
13.5862	1.44444	0.708957	33.9744
13.9655	1.44444	0.708957	33.0812
14.3448	1.44444	0.708957	32.0003
14.7241	1.44444	0.708957	30.4699
15.1034	1.44444	0.708957	27.8627
15.4828	1.44444	0.708957	22.6768
15.8621	1.44444	0.708957	11.3147
16.2414	1.44444	0.708957	-14.8395
16.6207	1.44444	0.708957	-76.4212
17	1.44444	0.708957	-222.853
6	1.45455	0.724678	47.0433
6.37931	1.45455	0.724678	47.5495
6.75862	1.45455	0.724678	47.319
7.13793	1.45455	0.724678	46.7809
7.51724	1.45455	0.724678	46.1143
7.89655	1.45455	0.724678	45.3941
8.27586	1.45455	0.724678	44.6516
8.65517	1.45455	0.724678	43.8996
9.03448	1.45455	0.724678	43.1438
9.41379	1.45455	0.724678	42.3864
9.7931	1.45455	0.724678	41.6282
10.1724	1.45455	0.724678	40.8698
10.5517	1.45455	0.724678	40.1112
10.931	1.45455	0.724678	39.3525
11.3103	1.45455	0.724678	38.5936
11.6897	1.45455	0.724678	37.8343
12.069	1.45455	0.724678	37.0739
12.4483	1.45455	0.724678	36.3112
12.8276	1.45455	0.724678	35.5428
13.2069	1.45455	0.724678	34.7607
13.5862	1.45455	0.724678	33.9459
13.9655	1.45455	0.724678	33.0528
14.3448	1.45455	0.724678	31.9719
14.7241	1.45455	0.724678	30.4414
15.1034	1.45455	0.724678	27.8343
15.4828	1.45455	0.724678	22.6484
15.8621	1.45455	0.724678	11.2863
16.2414	1.45455	0.724678	-14.8679
16.6207	1.45455	0.724678	-76.4496
17	1.45455	0.724678	-222.881
6	1.46465	0.739314	47.0097
6.37931	1.46465	0.739314	47.5159
6.75862	1.46465	0.739314	47.2854
7.13793	1.46465	0.739314	46.7472
7.51724	1.46465	0.739314	46.0807
7.89655	1.46465	0.739314	45.3605
8.27586	1.46465	0.739314	44.6179
8.65517	1.46465	0.739314	43.866
9.03448	1.46465	0.739314	43.1102
9.41379	1.46465	0.739314	42.3527
9.7931	1.46465	0.739314	41.5946
10.1724	1.46465	0.739314	40.8361
10.5517	1.46465	0.739314	40.0776
10.931	1.46465	0.739314	39.3189
11.3103	1.46465	0.739314	38.5599
11.6897	1.46465	0.739314	37.8006
12.069	1.46465	0.739314	37.0403
12.4483	1.46465	0.739314	36.2776
12.8276	1.46465	0.739314	35.5092
13.2069	1.46465	0.739314	34.7271
13.5862	1.46465	0.739314	33.9123
13.9655	1.46465	0.739314	33.0191
14.3448	1.46465	0.739314	31.9382
14.7241	1.46465	0.739314	30.4078
15.1034	1.46465	0.739314	27.8006
15.4828	1.46465	0.739314	22.6147
15.8621	1.46465	0.739314	11.2527
16.2414	1.46465	0.739314	-14.9015
16.6207	1.46465	0.739314	-76.4833
17	1.46465	0.739314	-222.915
6	1.47475	0.755417	46.9799
6.37931	1.47475	0.755417	47.4861
6.75862	1.47475	0.755417	47.2556
7.13793	1.47475	0.755417	46.7175
7.51724	1.47475	0.755417	46.0509
7.89655	1.47475	0.755417	45.3307
8.27586	1.47475	0.755417	44.5882
8.65517	1.47475	0.755417	43.8362
9.03448	1.47475	0.755417	43.0804
9.41379	1.47475	0.755417	42.323
9.7931	1.47475	0.755417	41.5648
10.1724	1.47475	0.755417	40.8064
10.5517	1.47475	0.755417	40.0478
10.931	1.47475	0.755417	39.2891
11.3103	1.47475	0.755417	38.5302
11.6897	1.47475	0.755417	37.7709
12.069	1.47475	0.755417	37.0105
12.4483	1.47475	0.755417	36.2478
12.8276	1.47475	0.755417	35.4794
13.2069	1.47475	0.755417	34.6973
13.5862	1.47475	0.755417	33.8825
13.9655	1.47475	0.755417	32.9894
14.3448	1.47475	0.755417	31.9085
14.7241	1.47475	0.755417	30.378
15.1034	1.47475	0.755417	27.7709
15.4828	1.47475	0.755417	22.585
15.8621	1.47475	0.755417	11.2229
16.2414	1.47475	0.755417	-14.9313
16.6207	1.47475	0.755417	-76.513
17	1.47475	0.755417	-222.945
6	1.48485	0.770447	46.9448
6.37931	1.48485	0.770447	47.4509
6.75862	1.48485	0.770447	47.2204
7.13793	1.48485	0.770447	46.6823
7.51724	1.48485	0.770447	46.0157
7.89655	1.48485	0.770447	45.2956
8.27586	1.48485	0.770447	44.553
8.65517	1.48485	0.770447	43.8011
9.03448	1.48485	0.770447	43.0452
9.41379	1.48485	0.770447	42.2878
9.7931	1.48485	0.770447	41.5297
10.1724	1.48485	0.770447	40.7712
10.5517	1.48485	0.770447	40.0126
10.931	1.48485	0.770447	39.2539
11.3103	1.48485	0.770447	38.495
11.6897	1.48485	0.770447	37.7357
12.069	1.48485	0.770447	36.9754
12.4483	1.48485	0.770447	36.2127
12.8276	1.48485	0.770447	35.4442
13.2069	1.48485	0.770447	34.6622
13.5862	1.48485	0.770447	33.8474
13.9655	1.48485	0.770447	32.9542
14.3448	1.48485	0.770447	31.8733
14.7241	1.48485	0.770447	30.3429
15.1034	1.48485	0.770447	27.7357
15.4828	1.48485	0.770447	22.5498
15.8621	1.48485	0.770447	11.1877
16.2414	1.48485	0.770447	-14.9665
16.6207	1.48485	0.770447	-76.5482
17	1.48485	0.770447	-222.98
6	1.49495	0.78697	46.9135
6.37931	1.49495	0.78697	47.4196
6.75862	1.49495	0.78697	47.1891
7.13793	1.49495	0.78697	46.651
7.51724	1.49495	0.78697	45.9845
7.89655	1.49495	0.78697	45.2643
8.27586	1.49495	0.78697	44.5217
8.65517	1.49495	0.78697	43.7698
9.03448	1.49495	0.78697	43.014
9.41379	1.49495	0.78697	42.2565
9.7931	1.49495	0.78697	41.4984
10.1724	1.49495	0.78697	40.7399
10.5517	1.49495	0.78697	39.9813
10.931	1.49495	0.78697	39.2226
11.3103	1.49495	0.78697	38.4637
11.6897	1.49495	0.78697	37.7044
12.069	1.49495	0.78697	36.9441
12.4483	1.49495	0.78697	36.1814
12.8276	1.49495	0.78697	35.4129
13.2069	1.49495	0.78697	34.6309
13.5862	1.49495	0.78697	33.8161
13.9655	1.49495	0.78697	32.9229
14.3448	1.49495	0.78697	31.842
14.7241	1.49495	0.78697	30.3116
15.1034	1.49495	0.78697	27.7044
15.4828	1.49495	0.78697	22.5185
15.8621	1.49495	0.78697	11.1564
16.2414	1.49495	0.78697	-14.9978
16.6207	1.49495	0.78697	-76.5795
17	1.49495	0.78697	-223.011
6	1.50505	0.802431	46.8765
6.37931	1.50505	0.802431	47.3827
6.75862	1.50505	0.802431	47.1521
7.13793	1.50505	0.802431	46.614
7.51724	1.50505	0.802431	45.9475
7.89655	1.50505	0.802431	45.2273
8.27586	1.50505	0.802431	44.4847
8.65517	1.50505	0.802431	43.7328
9.03448	1.50505	0.802431	42.977
9.41379	1.50505	0.802431	42.2195
9.7931	1.50505	0.802431	41.4614
10.1724	1.50505	0.802431	40.7029
10.5517	1.50505	0.802431	39.9443
10.931	1.50505	0.802431	39.1856
11.3103	1.50505	0.802431	38.4267
11.6897	1.50505	0.802431	37.6674
12.069	1.50505	0.802431	36.9071
12.4483	1.50505	0.802431	36.1444
12.8276	1.50505	0.802431	35.3759
13.2069	1.50505	0.802431	34.5939
13.5862	1.50505	0.802431	33.7791
13.9655	1.50505	0.802431	32.8859
14.3448	1.50505	0.802431	31.805
14.7241	1.50505	0.802431	30.2746
15.1034	1.50505	0.802431	27.6674
15.4828	1.50505	0.802431	22.4815
15.8621	1.50505	0.802431	11.1194
16.2414	1.50505	0.802431	-15.0348
16.6207	1.50505	0.802431	-76.6165
17	1.50505	0.802431	-223.048
6	1.51515	0.81941	46.8433
6.37931	1.51515	0.81941	47.3495
6.75862	1.51515	0.81941	47.119
7.13793	1.51515	0.81941	46.5809
7.51724	1.51515	0.81941	45.9143
7.89655	1.51515	0.81941	45.1942
8.27586	1.51515	0.81941	44.4516
8.65517	1.51515	0.81941	43.6997
9.03448	1.51515	0.81941	42.9438
9.41379	1.51515	0.81941	42.1864
9.7931	1.51515	0.81941	41.4282
10.1724	1.51515	0.81941	40.6698
10.5517	1.51515	0.81941	39.9112
10.931	1.51515	0.81941	39.1525
11.3103	1.51515	0.81941	38.3936
11.6897	1.51515	0.81941	37.6343
12.069	1.51515	0.81941	36.874
12.4483	1.51515	0.81941	36.1112
12.8276	1.51515	0.81941	35.3428
13.2069	1.51515	0.81941	34.5608
13.5862	1.51515	0.81941	33.746
13.9655	1.51515	0.81941	32.8528
14.3448	1.51515	0.81941	31.7719
14.7241	1.51515	0.81941	30.2415
15.1034	1.51515	0.81941	27.6343
15.4828	1.51515	0.81941	22.4484
15.8621	1.51515	0.81941	11.0863
16.2414	1.51515	0.81941	-15.0679
16.6207	1.51515	0.81941	-76.6496
17	1.51515	0.81941	-223.081
6	1.52525	0.836635	46.8092
6.37931	1.52525	0.836635	47.3154
6.75862	1.52525	0.836635	47.0849
7.13793	1.52525	0.836635	46.5468
7.51724	1.52525	0.836635	45.8802
7.89655	1.52525	0.836635	45.1601
8.27586	1.52525	0.836635	44.4175
8.65517	1.52525	0.836635	43.6656
9.03448	1.52525	0.836635	42.9097
9.41379	1.52525	0.836635	42.1523
9.7931	1.52525	0.836635	41.3941
10.1724	1.52525	0.836635	40.6357
10.5517	1.52525	0.836635	39.8771
10.931	1.52525	0.836635	39.1184
11.3103	1.52525	0.836635	38.3595
11.6897	1.52525	0.836635	37.6002
12.069	1.52525	0.836635	36.8398
12.4483	1.52525	0.836635	36.0771
12.8276	1.52525	0.836635	35.3087
13.2069	1.52525	0.836635	34.5266
13.5862	1.52525	0.836635	33.7118
13.9655	1.52525	0.836635	32.8187
14.3448	1.52525	0.836635	31.7378
14.7241	1.52525	0.836635	30.2074
15.1034	1.52525	0.836635	27.6002
15.4828	1.52525	0.836635	22.4143
15.8621	1.52525	0.836635	11.0522
16.2414	1.52525	0.836635	-15.102
16.6207	1.52525	0.836635	-76.6837
17	1.52525	0.836635	-223.115
6	1.53535	0.854114	46.774
6.37931	1.53535	0.854114	47.2802
6.75862	1.53535	0.854114	47.0497
7.13793	1.53535	0.854114	46.5116
7.51724	1.53535	0.854114	45.845
7.89655	1.53535	0.854114	45.1249
8.27586	1.53535	0.854114	44.3823
8.65517	1.53535	0.854114	43.6304
9.03448	1.53535	0.854114	42.8745
9.41379	1.53535	0.854114	42.1171
9.7931	1.53535	0.854114	41.3589
10.1724	1.53535	0.854114	40.6005
10.5517	1.53535	0.854114	39.8419
10.931	1.53535	0.854114	39.0832
11.3103	1.53535	0.854114	38.3243
11.6897	1.53535	0.854114	37.565
12.069	1.53535	0.854114	36.8046
12.4483	1.53535	0.854114	36.0419
12.8276	1.53535	0.854114	35.2735
13.2069	1.53535	0.854114	34.4914
13.5862	1.53535	0.854114	33.6766
13.9655	1.53535	0.854114	32.7835
14.3448	1.53535	0.854114	31.7026
14.7241	1.53535	0.854114	30.1721
15.1034	1.53535	0.854114	27.565
15.4828	1.53535	0.854114	22.3791
15.8621	1.53535	0.854114	11.017
16.2414	1.53535	0.854114	-15.1372
16.6207	1.53535	0.854114	-76.7189
17	1.53535	0.854114	-223.15
6	1.54545	0.871856	46.7376
6.37931	1.54545	0.871856	47.2438
6.75862	1.54545	0.871856	47.0133
7.13793	1.54545	0.871856	46.4752
7.51724	1.54545	0.871856	45.8086
7.89655	1.54545	0.871856	45.0884
8.27586	1.54545	0.871856	44.3459
8.65517	1.54545	0.871856	43.594
9.03448	1.54545	0.871856	42.8381
9.41379	1.54545	0.871856	42.0807
9.7931	1.54545	0.871856	41.3225
10.1724	1.54545	0.871856	40.5641
10.5517	1.54545	0.871856	39.8055
10.931	1.54545	0.871856	39.0468
11.3103	1.54545	0.871856	38.2879
11.6897	1.54545	0.871856	37.5286
12.069	1.54545	0.871856	36.7682
12.4483	1.54545	0.871856	36.0055
12.8276	1.54545	0.871856	35.2371
13.2069	1.54545	0.871856	34.455
13.5862	1.54545	0.871856	33.6402
13.9655	1.54545	0.871856	32.7471
14.3448	1.54545	0.871856	31.6662
14.7241	1.54545	0.871856	30.1357
15.1034	1.54545	0.871856	27.5286
15.4828	1.54545	0.871856	22.3427
15.8621	1.54545	0.871856	10.9806
16.2414	1.54545	0.871856	-15.1736
16.6207	1.54545	0.871856	-76.7553
17	1.54545	0.871856	-223.187
6	1.55556	0.891189	46.7053
6.37931	1.55556	0.891189	47.2115
6.75862	1.55556	0.891189	46.981
7.13793	1.55556	0.891189	46.4429
7.51724	1.55556	0.891189	45.7763
7.89655	1.55556	0.891189	45.0562
8.27586	1.55556	0.891189	44.3136
8.65517	1.55556	0.891189	43.5617
9.03448	1.55556	0.891189	42.8058
9.41379	1.55556	0.891189	42.0484
9.7931	1.55556	0.891189	41.2902
10.1724	1.55556	0.891189	40.5318
10.5517	1.55556	0.891189	39.7732
10.931	1.55556	0.891189	39.0145
11.3103	1.55556	0.891189	38.2556
11.6897	1.55556	0.891189	37.4963
12.069	1.55556	0.891189	36.736
12.4483	1.55556	0.891189	35.9732
12.8276	1.55556	0.891189	35.2048
13.2069	1.55556	0.891189	34.4228
13.5862	1.55556	0.891189	33.608
13.9655	1.55556	0.891189	32.7148
14.3448	1.55556	0.891189	31.6339
14.7241	1.55556	0.891189	30.1035
15.1034	1.55556	0.891189	27.4963
15.4828	1.55556	0.891189	22.3104
15.8621	1.55556	0.891189	10.9483
16.2414	1.55556	0.891189	-15.2059
16.6207	1.55556	0.891189	-76.7876
17	1.55556	0.891189	-223.219
6	1.56566	0.909493	46.6663
6.37931	1.56566	0.909493	47.1725
6.75862	1.56566	0.909493	46.9419
7.13793	1.56566	0.909493	46.4038
7.51724	1.56566	0.909493	45.7373
7.89655	1.56566	0.909493	45.0171
8.27586	1.56566	0.909493	44.2745
8.65517	1.56566	0.909493	43.5226
9.03448	1.56566	0.909493	42.7668
9.41379	1.56566	0.909493	42.0093
9.7931	1.56566	0.909493	41.2512
10.1724	1.56566	0.909493	40.4927
10.5517	1.56566	0.909493	39.7341
10.931	1.56566	0.909493	38.9754
11.3103	1.56566	0.909493	38.2165
11.6897	1.56566	0.909493	37.4572
12.069	1.56566	0.909493	36.6969
12.4483	1.56566	0.909493	35.9342
12.8276	1.56566	0.909493	35.1657
13.2069	1.56566	0.909493	34.3837
13.5862	1.56566	0.909493	33.5689
13.9655	1.56566	0.909493	32.6757
14.3448	1.56566	0.909493	31.5948
14.7241	1.56566	0.909493	30.0644
15.1034	1.56566	0.909493	27.4572
15.4828	1.56566	0.909493	22.2713
15.8621	1.56566	0.909493	10.9092
16.2414	1.56566	0.909493	-15.245
16.6207	1.56566	0.909493	-76.8267
17	1.56566	0.909493	-223.258
6	1.57576	0.929421	46.6313
6.37931	1.57576	0.929421	47.1375
6.75862	1.57576	0.929421	46.907
7.13793	1.57576	0.929421	46.3689
7.51724	1.57576	0.929421	45.7023
7.89655	1.57576	0.929421	44.9821
8.27586	1.57576	0.929421	44.2396
8.65517	1.57576	0.929421	43.4876
9.03448	1.57576	0.929421	42.7318
9.41379	1.57576	0.929421	41.9744
9.7931	1.57576	0.929421	41.2162
10.1724	1.57576	0.929421	40.4578
10.5517	1.57576	0.929421	39.6992
10.931	1.57576	0.929421	38.9405
11.3103	1.57576	0.929421	38.1816
11.6897	1.57576	0.929421	37.4223
12.069	1.57576	0.929421	36.6619
12.4483	1.57576	0.929421	35.8992
12.8276	1.57576	0.929421	35.1308
13.2069	1.57576	0.929421	34.3487
13.5862	1.57576	0.929421	33.5339
13.9655	1.57576	0.929421	32.6408
14.3448	1.57576	0.929421	31.5599
14.7241	1.57576	0.929421	30.0294
15.1034	1.57576	0.929421	27.4223
15.4828	1.57576	0.929421	22.2364
15.8621	1.57576	0.929421	10.8743
16.2414	1.57576	0.929421	-15.2799
16.6207	1.57576	0.929421	-76.8616
17	1.57576	0.929421	-223.293
6	1.58586	0.949666	46.5949
6.37931	1.58586	0.949666	47.1011
6.75862	1.58586	0.949666	46.8706
7.13793	1.58586	0.949666	46.3325
7.51724	1.58586	0.949666	45.6659
7.89655	1.58586	0.949666	44.9457
8.27586	1.58586	0.949666	44.2032
8.65517	1.58586	0.949666	43.4512
9.03448	1.58586	0.949666	42.6954
9.41379	1.58586	0.949666	41.938
9.7931	1.58586	0.949666	41.1798
10.1724	1.58586	0.949666	40.4214
10.5517	1.58586	0.949666	39.6628
10.931	1.58586	0.949666	38.9041
11.3103	1.58586	0.949666	38.1452
11.6897	1.58586	0.949666	37.3858
12.069	1.58586	0.949666	36.6255
12.4483	1.58586	0.949666	35.8628
12.8276	1.58586	0.949666	35.0944
13.2069	1.58586	0.949666	34.3123
13.5862	1.58586	0.949666	33.4975
13.9655	1.58586	0.949666	32.6043
14.3448	1.58586	0.949666	31.5235
14.7241	1.58586	0.949666	29.993
15.1034	1.58586	0.949666	27.3859
15.4828	1.58586	0.949666	22.2
15.8621	1.58586	0.949666	10.8379
16.2414	1.58586	0.949666	-15.3163
16.6207	1.58586	0.949666	-76.898
17	1.58586	0.949666	-223.33
6	1.59596	0.968883	46.5506
6.37931	1.59596	0.968883	47.0568
6.75862	1.59596	0.968883	46.8263
7.13793	1.59596	0.968883	46.2881
7.51724	1.59596	0.968883	45.6216
7.89655	1.59596	0.968883	44.9014
8.27586	1.59596	0.968883	44.1588
8.65517	1.59596	0.968883	43.4069
9.03448	1.59596	0.968883	42.6511
9.41379	1.59596	0.968883	41.8936
9.7931	1.59596	0.968883	41.1355
10.1724	1.59596	0.968883	40.3771
10.5517	1.59596	0.968883	39.6185
10.931	1.59596	0.968883	38.8598
11.3103	1.59596	0.968883	38.1009
11.6897	1.59596	0.968883	37.3415
12.069	1.59596	0.968883	36.5812
12.4483	1.59596	0.968883	35.8185
12.8276	1.59596	0.968883	35.0501
13.2069	1.59596	0.968883	34.268
13.5862	1.59596	0.968883	33.4532
13.9655	1.59596	0.968883	32.56
14.3448	1.59596	0.968883	31.4791
14.7241	1.59596	0.968883	29.9487
15.1034	1.59596	0.968883	27.3415
15.4828	1.59596	0.968883	22.1556
15.8621	1.59596	0.968883	10.7936
16.2414	1.59596	0.968883	-15.3606
16.6207	1.59596	0.968883	-76.9424
17	1.59596	0.968883	-223.374
6	1.60606	0.991143	46.5169
6.37931	1.60606	0.991143	47.0231
6.75862	1.60606	0.991143	46.7926
7.13793	1.60606	0.991143	46.2545
7.51724	1.60606	0.991143	45.5879
7.89655	1.60606	0.991143	44.8677
8.27586	1.60606	0.991143	44.1252
8.65517	1.60606	0.991143	43.3732
9.03448	1.60606	0.991143	42.6174
9.41379	1.60606	0.991143	41.86
9.7931	1.60606	0.991143	41.1018
10.1724	1.60606	0.991143	40.3434
10.5517	1.60606	0.991143	39.5848
10.931	1.60606	0.991143	38.8261
11.3103	1.60606	0.991143	38.0672
11.6897	1.60606	0.991143	37.3078
12.069	1.60606	0.991143	36.5475
12.4483	1.60606	0.991143	35.7848
12.8276	1.60606	0.991143	35.0164
13.2069	1.60606	0.991143	34.2343
13.5862	1.60606	0.991143	33.4195
13.9655	1.60606	0.991143	32.5263
14.3448	1.60606	0.991143	31.4455
14.7241	1.60606	0.991143	29.915
15.1034	1.60606	0.991143	27.3079
15.4828	1.60606	0.991143	22.122
15.8621	1.60606	0.991143	10.7599
16.2414	1.60606	0.991143	-15.3943
16.6207	1.60606	0.991143	-76.976
17	1.60606	0.991143	-223.408
6	1.61616	1.0124	46.4748
6.37931	1.61616	1.0124	46.981
6.75862	1.61616	1.0124	46.7505
7.13793	1.61616	1.0124	46.2124
7.51724	1.61616	1.0124	45.5458
7.89655	1.61616	1.0124	44.8256
8.27586	1.61616	1.0124	44.0831
8.65517	1.61616	1.0124	43.3312
9.03448	1.61616	1.0124	42.5753
9.41379	1.61616	1.0124	41.8179
9.7931	1.61616	1.0124	41.0597
10.1724	1.61616	1.0124	40.3013
10.5517	1.61616	1.0124	39.5427
10.931	1.61616	1.0124	38.784
11.3103	1.61616	1.0124	38.0251
11.6897	1.61616	1.0124	37.2658
12.069	1.61616	1.0124	36.5054
12.4483	1.61616	1.0124	35.7427
12.8276	1.61616	1.0124	34.9743
13.2069	1.61616	1.0124	34.1922
13.5862	1.61616	1.0124	33.3774
13.9655	1.61616	1.0124	32.4843
14.3448	1.61616	1.0124	31.4034
14.7241	1.61616	1.0124	29.8729
15.1034	1.61616	1.0124	27.2658
15.4828	1.61616	1.0124	22.0799
15.8621	1.61616	1.0124	10.7178
16.2414	1.61616	1.0124	-15.4364
16.6207	1.61616	1.0124	-77.0181
17	1.61616	1.0124	-223.45
6	1.62626	1.034	46.4303
6.37931	1.62626	1.034	46.9365
6.75862	1.62626	1.034	46.706
7.13793	1.62626	1.034	46.1678
7.51724	1.62626	1.034	45.5013
7.89655	1.62626	1.034	44.7811
8.27586	1.62626	1.034	44.0385
8.65517	1.62626	1.034	43.2866
9.03448	1.62626	1.034	42.5308
9.41379	1.62626	1.034	41.7733
9.7931	1.62626	1.034	41.0152
10.1724	1.62626	1.034	40.2567
10.5517	1.62626	1.034	39.4982
10.931	1.62626	1.034	38.7395
11.3103	1.62626	1.034	37.9805
11.6897	1.62626	1.034	37.2212
12.069	1.62626	1.034	36.4609
12.4483	1.62626	1.034	35.6982
12.8276	1.62626	1.034	34.9298
13.2069	1.62626	1.034	34.1477
13.5862	1.62626	1.034	33.3329
13.9655	1.62626	1.034	32.4397
14.3448	1.62626	1.034	31.3588
14.7241	1.62626	1.034	29.8284
15.1034	1.62626	1.034	27.2212
15.4828	1.62626	1.034	22.0353
15.8621	1.62626	1.034	10.6733
16.2414	1.62626	1.034	-15.4809
16.6207	1.62626	1.034	-77.0627
17	1.62626	1.034	-223.494
6	1.63636	1.05737	46.3904
6.37931	1.63636	1.05737	46.8966
6.75862	1.63636	1.05737	46.6661
7.13793	1.63636	1.05737	46.128
7.51724	1.63636	1.05737	45.4614
7.89655	1.63636	1.05737	44.7412
8.27586	1.63636	1.05737	43.9987
8.65517	1.63636	1.05737	43.2467
9.03448	1.63636	1.05737	42.4909
9.41379	1.63636	1.05737	41.7335
9.7931	1.63636	1.05737	40.9753
10.1724	1.63636	1.05737	40.2169
10.5517	1.63636	1.05737	39.4583
10.931	1.63636	1.05737	38.6996
11.3103	1.63636	1.05737	37.9407
11.6897	1.63636	1.05737	37.1814
12.069	1.63636	1.05737	36.421
12.4483	1.63636	1.05737	35.6583
12.8276	1.63636	1.05737	34.8899
13.2069	1.63636	1.05737	34.1078
13.5862	1.63636	1.05737	33.293
13.9655	1.63636	1.05737	32.3998
14.3448	1.63636	1.05737	31.319
14.7241	1.63636	1.05737	29.7885
15.1034	1.63636	1.05737	27.1814
15.4828	1.63636	1.05737	21.9955
15.8621	1.63636	1.05737	10.6334
16.2414	1.63636	1.05737	-15.5208
16.6207	1.63636	1.05737	-77.1025
17	1.63636	1.05737	-223.534
6	1.64646	1.08115	46.3481
6.37931	1.64646	1.08115	46.8543
6.75862	1.64646	1.08115	46.6237
7.13793	1.64646	1.08115	46.0856
7.51724	1.64646	1.08115	45.4191
7.89655	1.64646	1.08115	44.6989
8.27586	1.64646	1.08115	43.9563
8.65517	1.64646	1.08115	43.2044
9.03448	1.64646	1.08115	42.4486
9.41379	1.64646	1.08115	41.6911
9.7931	1.64646	1.08115	40.933
10.1724	1.64646	1.08115	40.1745
10.5517	1.64646	1.08115	39.4159
10.931	1.64646	1.08115	38.6572
11.3103	1.64646	1.08115	37.8983
11.6897	1.64646	1.08115	37.139
12.069	1.64646	1.08115	36.3787
12.4483	1.64646	1.08115	35.616
12.8276	1.64646	1.08115	34.8476
13.2069	1.64646	1.08115	34.0655
13.5862	1.64646	1.08115	33.2507
13.9655	1.64646	1.08115	32.3575
14.3448	1.64646	1.08115	31.2766
14.7241	1.64646	1.08115	29.7462
15.1034	1.64646	1.08115	27.139
15.4828	1.64646	1.08115	21.9531
15.8621	1.64646	1.08115	10.591
16.2414	1.64646	1.08115	-15.5632
16.6207	1.64646	1.08115	-77.1449
17	1.64646	1.08115	-223.576
6	1.65657	1.10533	46.3028
6.37931	1.65657	1.10533	46.809
6.75862	1.65657	1.10533	46.5785
7.13793	1.65657	1.10533	46.0404
7.51724	1.65657	1.10533	45.3738
7.89655	1.65657	1.10533	44.6536
8.27586	1.65657	1.10533	43.9111
8.65517	1.65657	1.10533	43.1591
9.03448	1.65657	1.10533	42.4033
9.41379	1.65657	1.10533	41.6459
9.7931	1.65657	1.10533	40.8877
10.1724	1.65657	1.10533	40.1293
10.5517	1.65657	1.10533	39.3707
10.931	1.65657	1.10533	38.612
11.3103	1.65657	1.10533	37.8531
11.6897	1.65657	1.10533	37.0938
12.069	1.65657	1.10533	36.3334
12.4483	1.65657	1.10533	35.5707
12.8276	1.65657	1.10533	34.8023
13.2069	1.65657	1.10533	34.0202
13.5862	1.65657	1.10533	33.2054
13.9655	1.65657	1.10533	32.3123
14.3448	1.65657	1.10533	31.2314
14.7241	1.65657	1.10533	29.7009
15.1034	1.65657	1.10533	27.0938
15.4828	1.65657	1.10533	21.9079
15.8621	1.65657	1.10533	10.5458
16.2414	1.65657	1.10533	-15.6084
16.6207	1.65657	1.10533	-77.1901
17	1.65657	1.10533	-223.622
6	1.66667	1.13138	46.2632
6.37931	1.66667	1.13138	46.7694
6.75862	1.66667	1.13138	46.5388
7.13793	1.66667	1.13138	46.0007
7.51724	1.66667	1.13138	45.3342
7.89655	1.66667	1.13138	44.614
8.27586	1.66667	1.13138	43.8714
8.65517	1.66667	1.13138	43.1195
9.03448	1.66667	1.13138	42.3637
9.41379	1.66667	1.13138	41.6062
9.7931	1.66667	1.13138	40.8481
10.1724	1.66667	1.13138	40.0896
10.5517	1.66667	1.13138	39.331
10.931	1.66667	1.13138	38.5723
11.3103	1.66667	1.13138	37.8134
11.6897	1.66667	1.13138	37.0541
12.069	1.66667	1.13138	36.2938
12.4483	1.66667	1.13138	35.5311
12.8276	1.66667	1.13138	34.7627
13.2069	1.66667	1.13138	33.9806
13.5862	1.66667	1.13138	33.1658
13.9655	1.66667	1.13138	32.2726
14.3448	1.66667	1.13138	31.1917
14.7241	1.66667	1.13138	29.6613
15.1034	1.66667	1.13138	27.0541
15.4828	1.66667	1.13138	21.8682
15.8621	1.66667	1.13138	10.5061
16.2414	1.66667	1.13138	-15.6481
16.6207	1.66667	1.13138	-77.2298
17	1.66667	1.13138	-223.661
6	1.67677	1.15643	46.2111
6.37931	1.67677	1.15643	46.7173
6.75862	1.67677	1.15643	46.4868
7.13793	1.67677	1.15643	45.9487
7.51724	1.67677	1.15643	45.2821
7.89655	1.67677	1.15643	44.5619
8.27586	1.67677	1.15643	43.8194
8.65517	1.67677	1.15643	43.0674
9.03448	1.67677	1.15643	42.3116
9.41379	1.67677	1.15643	41.5542
9.7931	1.67677	1.15643	40.796
10.1724	1.67677	1.15643	40.0376
10.5517	1.67677	1.15643	39.279
10.931	1.67677	1.15643	38.5203
11.3103	1.67677	1.15643	37.7614
11.6897	1.67677	1.15643	37.0021
12.069	1.67677	1.15643	36.2417
12.4483	1.67677	1.15643	35.479
12.8276	1.67677	1.15643	34.7106
13.2069	1.67677	1.15643	33.9285
13.5862	1.67677	1.15643	33.1137
13.9655	1.67677	1.15643	32.2206
14.3448	1.67677	1.15643	31.1397
14.7241	1.67677	1.15643	29.6092
15.1034	1.67677	1.15643	27.0021
15.4828	1.67677	1.15643	21.8162
15.8621	1.67677	1.15643	10.4541
16.2414	1.67677	1.15643	-15.7001
16.6207	1.67677	1.15643	-77.2818
17	1.67677	1.15643	-223.713
6	1.68687	1.18341	46.1647
6.37931	1.68687	1.18341	46.6709
6.75862	1.68687	1.18341	46.4404
7.13793	1.68687	1.18341	45.9022
7.51724	1.68687	1.18341	45.2357
7.89655	1.68687	1.18341	44.5155
8.27586	1.68687	1.18341	43.7729
8.65517	1.68687	1.18341	43.021
9.03448	1.68687	1.18341	42.2652
9.41379	1.68687	1.18341	41.5077
9.7931	1.68687	1.18341	40.7496
10.1724	1.68687	1.18341	39.9911
10.5517	1.68687	1.18341	39.2326
10.931	1.68687	1.18341	38.4738
11.3103	1.68687	1.18341	37.7149
11.6897	1.68687	1.18341	36.9556
12.069	1.68687	1.18341	36.1953
12.4483	1.68687	1.18341	35.4326
12.8276	1.68687	1.18341	34.6642
13.2069	1.68687	1.18341	33.8821
13.5862	1.68687	1.18341	33.0673
13.9655	1.68687	1.18341	32.1741
14.3448	1.68687	1.18341	31.0932
14.7241	1.68687	1.18341	29.5628
15.1034	1.68687	1.18341	26.9556
15.4828	1.68687	1.18341	21.7697
15.8621	1.68687	1.18341	10.4076
16.2414	1.68687	1.18341	-15.7466
16.6207	1.68687	1.18341	-77.3283
17	1.68687	1.18341	-223.76
6	1.69697	1.21088	46.1142
6.37931	1.69697	1.21088	46.6204
6.75862	1.69697	1.21088	46.3898
7.13793	1.69697	1.21088	45.8517
7.51724	1.69697	1.21088	45.1852
7.89655	1.69697	1.21088	44.465
8.27586	1.69697	1.21088	43.7224
8.65517	1.69697	1.21088	42.9705
9.03448	1.69697	1.21088	42.2147
9.41379	1.69697	1.21088	41.4572
9.7931	1.69697	1.21088	40.6991
10.1724	1.69697	1.21088	39.9406
10.5517	1.69697	1.21088	39.182
10.931	1.69697	1.21088	38.4233
11.3103	1.69697	1.21088	37.6644
11.6897	1.69697	1.21088	36.9051
12.069	1.69697	1.21088	36.1448
12.4483	1.69697	1.21088	35.3821
12.8276	1.69697	1.21088	34.6136
13.2069	1.69697	1.21088	33.8316
13.5862	1.69697	1.21088	33.0168
13.9655	1.69697	1.21088	32.1236
14.3448	1.69697	1.21088	31.0427
14.7241	1.69697	1.21088	29.5123
15.1034	1.69697	1.21088	26.9051
15.4828	1.69697	1.21088	21.7192
15.8621	1.69697	1.21088	10.3571
16.2414	1.69697	1.21088	-15.7971
16.6207	1.69697	1.21088	-77.3788
17	1.69697	1.21088	-223.81
6	1.70707	1.23884	46.0587
6.37931	1.70707	1.23884	46.5648
6.75862	1.70707	1.23884	46.3343
7.13793	1.70707	1.23884	45.7962
7.51724	1.70707	1.23884	45.1297
7.89655	1.70707	1.23884	44.4095
8.27586	1.70707	1.23884	43.6669
8.65517	1.70707	1.23884	42.915
9.03448	1.70707	1.23884	42.1592
9.41379	1.70707	1.23884	41.4017
9.7931	1.70707	1.23884	40.6436
10.1724	1.70707	1.23884	39.8851
10.5517	1.70707	1.23884	39.1265
10.931	1.70707	1.23884	38.3678
11.3103	1.70707	1.23884	37.6089
11.6897	1.70707	1.23884	36.8496
12.069	1.70707	1.23884	36.0893
12.4483	1.70707	1.23884	35.3266
12.8276	1.70707	1.23884	34.5581
13.2069	1.70707	1.23884	33.7761
13.5862	1.70707	1.23884	32.9613
13.9655	1.70707	1.23884	32.0681
14.3448	1.70707	1.23884	30.9872
14.7241	1.70707	1.23884	29.4568
15.1034	1.70707	1.23884	26.8496
15.4828	1.70707	1.23884	21.6637
15.8621	1.70707	1.23884	10.3016
16.2414	1.70707	1.23884	-15.8526
16.6207	1.70707	1.23884	-77.4343
17	1.70707	1.23884	-223.866
6	1.71717	1.26887	46.0105
6.37931	1.71717	1.26887	46.5167
6.75862	1.71717	1.26887	46.2862
7.13793	1.71717	1.26887	45.748
7.51724	1.71717	1.26887	45.0815
7.89655	1.71717	1.26887	44.3613
8.27586	1.71717	1.26887	43.6187
8.65517	1.71717	1.26887	42.8668
9.03448	1.71717	1.26887	42.111
9.41379	1.71717	1.26887	41.3535
9.7931	1.71717	1.26887	40.5954
10.1724	1.71717	1.26887	39.837
10.5517	1.71717	1.26887	39.0784
10.931	1.71717	1.26887	38.3197
11.3103	1.71717	1.26887	37.5608
11.6897	1.71717	1.26887	36.8014
12.069	1.71717	1.26887	36.0411
12.4483	1.71717	1.26887	35.2784
12.8276	1.71717	1.26887	34.51
13.2069	1.71717	1.26887	33.7279
13.5862	1.71717	1.26887	32.9131
13.9655	1.71717	1.26887	32.0199
14.3448	1.71717	1.26887	30.939
14.7241	1.71717	1.26887	29.4086
15.1034	1.71717	1.26887	26.8014
15.4828	1.71717	1.26887	21.6155
15.8621	1.71717	1.26887	10.2535
16.2414	1.71717	1.26887	-15.9007
16.6207	1.71717	1.26887	-77.4825
17	1.71717	1.26887	-223.914
6	1.72727	1.29789	45.9425
6.37931	1.72727	1.29789	46.4487
6.75862	1.72727	1.29789	46.2182
7.13793	1.72727	1.29789	45.68
7.51724	1.72727	1.29789	45.0135
7.89655	1.72727	1.29789	44.2933
8.27586	1.72727	1.29789	43.5507
8.65517	1.72727	1.29789	42.7988
9.03448	1.72727	1.29789	42.043
9.41379	1.72727	1.29789	41.2855
9.7931	1.72727	1.29789	40.5274
10.1724	1.72727	1.29789	39.7689
10.5517	1.72727	1.29789	39.0104
10.931	1.72727	1.29789	38.2516
11.3103	1.72727	1.29789	37.4927
11.6897	1.72727	1.29789	36.7334
12.069	1.72727	1.29789	35.9731
12.4483	1.72727	1.29789	35.2104
12.8276	1.72727	1.29789	34.442
13.2069	1.72727	1.29789	33.6599
13.5862	1.72727	1.29789	32.8451
13.9655	1.72727	1.29789	31.9519
14.3448	1.72727	1.29789	30.871
14.7241	1.72727	1.29789	29.3406
15.1034	1.72727	1.29789	26.7334
15.4828	1.72727	1.29789	21.5475
15.8621	1.72727	1.29789	10.1854
16.2414	1.72727	1.29789	-15.9688
16.6207	1.72727	1.29789	-77.5505
17	1.72727	1.29789	-223.982
6	1.73737	1.33064	45.8983
6.37931	1.73737	1.33064	46.4045
6.75862	1.73737	1.33064	46.1739
7.13793	1.73737	1.33064	45.6358
7.51724	1.73737	1.33064	44.9693
7.89655	1.73737	1.33064	44.2491
8.27586	1.73737	1.33064	43.5065
8.65517	1.73737	1.33064	42.7546
9.03448	1.73737	1.33064	41.9988
9.41379	1.73737	1.33064	41.2413
9.7931	1.73737	1.33064	40.4832
10.1724	1.73737	1.33064	39.7247
10.5517	1.73737	1.33064	38.9661
10.931	1.73737	1.33064	38.2074
11.3103	1.73737	1.33064	37.4485
11.6897	1.73737	1.33064	36.6892
12.069	1.73737	1.33064	35.9289
12.4483	1.73737	1.33064	35.1662
12.8276	1.73737	1.33064	34.3978
13.2069	1.73737	1.33064	33.6157
13.5862	1.73737	1.33064	32.8009
13.9655	1.73737	1.33064	31.9077
14.3448	1.73737	1.33064	30.8268
14.7241	1.73737	1.33064	29.2964
15.1034	1.73737	1.33064	26.6892
15.4828	1.73737	1.33064	21.5033
15.8621	1.73737	1.33064	10.1412
16.2414	1.73737	1.33064	-16.013
16.6207	1.73737	1.33064	-77.5947
17	1.73737	1.33064	-224.026
6	1.74747	1.36242	45.8313
6.37931	1.74747	1.36242	46.3375
6.75862	1.74747	1.36242	46.1069
7.13793	1.74747	1.36242	45.5688
7.51724	1.74747	1.36242	44.9023
7.89655	1.74747	1.36242	44.1821
8.27586	1.74747	1.36242	43.4395
8.65517	1.74747	1.36242	42.6876
9.03448	1.74747	1.36242	41.9318
9.41379	1.74747	1.36242	41.1743
9.7931	1.74747	1.36242	40.4162
10.1724	1.74747	1.36242	39.6577
10.5517	1.74747	1.36242	38.8991
10.931	1.74747	1.36242	38.1404
11.3103	1.74747	1.36242	37.3815
11.6897	1.74747	1.36242	36.6222
12.069	1.74747	1.36242	35.8619
12.4483	1.74747	1.36242	35.0992
12.8276	1.74747	1.36242	34.3307
13.2069	1.74747	1.36242	33.5487
13.5862	1.74747	1.36242	32.7339
13.9655	1.74747	1.36242	31.8407
14.3448	1.74747	1.36242	30.7598
14.7241	1.74747	1.36242	29.2294
15.1034	1.74747	1.36242	26.6222
15.4828	1.74747	1.36242	21.4363
15.8621	1.74747	1.36242	10.0742
16.2414	1.74747	1.36242	-16.08
16.6207	1.74747	1.36242	-77.6617
17	1.74747	1.36242	-224.093
6	1.75758	1.39646	45.7751
6.37931	1.75758	1.39646	46.2813
6.75862	1.75758	1.39646	46.0507
7.13793	1.75758	1.39646	45.5126
7.51724	1.75758	1.39646	44.8461
7.89655	1.75758	1.39646	44.1259
8.27586	1.75758	1.39646	43.3833
8.65517	1.75758	1.39646	42.6314
9.03448	1.75758	1.39646	41.8756
9.41379	1.75758	1.39646	41.1181
9.7931	1.75758	1.39646	40.36
10.1724	1.75758	1.39646	39.6015
10.5517	1.75758	1.39646	38.8429
10.931	1.75758	1.39646	38.0842
11.3103	1.75758	1.39646	37.3253
11.6897	1.75758	1.39646	36.566
12.069	1.75758	1.39646	35.8057
12.4483	1.75758	1.39646	35.043
12.8276	1.75758	1.39646	34.2746
13.2069	1.75758	1.39646	33.4925
13.5862	1.75758	1.39646	32.6777
13.9655	1.75758	1.39646	31.7845
14.3448	1.75758	1.39646	30.7036
14.7241	1.75758	1.39646	29.1732
15.1034	1.75758	1.39646	26.566
15.4828	1.75758	1.39646	21.3801
15.8621	1.75758	1.39646	10.018
16.2414	1.75758	1.39646	-16.1362
16.6207	1.75758	1.39646	-77.7179
17	1.75758	1.39646	-224.149
6	1.76768	1.4295	45.6871
6.37931	1.76768	1.4295	46.1933
6.75862	1.76768	1.4295	45.9628
7.13793	1.76768	1.4295	45.4247
7.51724	1.76768	1.4295	44.7581
7.89655	1.76768	1.4295	44.0379
8.27586	1.76768	1.4295	43.2954
8.65517	1.76768	1.4295	42.5435
9.03448	1.76768	1.4295	41.7876
9.41379	1.76768	1.4295	41.0302
9.7931	1.76768	1.4295	40.272
10.1724	1.76768	1.4295	39.5136
10.5517	1.76768	1.4295	38.755
10.931	1.76768	1.4295	37.9963
11.3103	1.76768	1.4295	37.2374
11.6897	1.76768	1.4295	36.4781
12.069	1.76768	1.4295	35.7177
12.4483	1.76768	1.4295	34.955
12.8276	1.76768	1.4295	34.1866
13.2069	1.76768	1.4295	33.4045
13.5862	1.76768	1.4295	32.5897
13.9655	1.76768	1.4295	31.6966
14.3448	1.76768	1.4295	30.6157
14.7241	1.76768	1.4295	29.0852
15.1034	1.76768	1.4295	26.4781
15.4828	1.76768	1.4295	21.2922
15.8621	1.76768	1.4295	9.9301
16.2414	1.76768	1.4295	-16.2241
16.6207	1.76768	1.4295	-77.8058
17	1.76768	1.4295	-224.237
6	1.77778	1.4666	45.6377
6.37931	1.77778	1.4666	46.1439
6.75862	1.77778	1.4666	45.9134
7.13793	1.77778	1.4666	45.3753
7.51724	1.77778	1.4666	44.7087
7.89655	1.77778	1.4666	43.9885
8.27586	1.77778	1.4666	43.246
8.65517	1.77778	1.4666	42.494
9.03448	1.77778	1.4666	41.7382
9.41379	1.77778	1.4666	40.9808
9.7931	1.77778	1.4666	40.2226
10.1724	1.77778	1.4666	39.4642
10.5517	1.77778	1.4666	38.7056
10.931	1.77778	1.4666	37.9469
11.3103	1.77778	1.4666	37.188
11.6897	1.77778	1.4666	36.4287
12.069	1.77778	1.4666	35.6683
12.4483	1.77778	1.4666	34.9056
12.8276	1.77778	1.4666	34.1372
13.2069	1.77778	1.4666	33.3551
13.5862	1.77778	1.4666	32.5403
13.9655	1.77778	1.4666	31.6472
14.3448	1.77778	1.4666	30.5663
14.7241	1.77778	1.4666	29.0358
15.1034	1.77778	1.4666	26.4287
15.4828	1.77778	1.4666	21.2428
15.8621	1.77778	1.4666	9.88068
16.2414	1.77778	1.4666	-16.2735
16.6207	1.77778	1.4666	-77.8552
17	1.77778	1.4666	-224.287
6	1.78788	1.50273	45.5503
6.37931	1.78788	1.50273	46.0565
6.75862	1.78788	1.50273	45.8259
7.13793	1.78788	1.50273	45.2878
7.51724	1.78788	1.50273	44.6213
7.89655	1.78788	1.50273	43.9011
8.27586	1.78788	1.50273	43.1585
8.65517	1.78788	1.50273	42.4066
9.03448	1.78788	1.50273	41.6508
9.41379	1.78788	1.50273	40.8933
9.7931	1.78788	1.50273	40.1352
10.1724	1.78788	1.50273	39.3767
10.5517	1.78788	1.50273	38.6181
10.931	1.78788	1.50273	37.8594
11.3103	1.78788	1.50273	37.1005
11.6897	1.78788	1.50273	36.3412
12.069	1.78788	1.50273	35.5809
12.4483	1.78788	1.50273	34.8182
12.8276	1.78788	1.50273	34.0498
13.2069	1.78788	1.50273	33.2677
13.5862	1.78788	1.50273	32.4529
13.9655	1.78788	1.50273	31.5597
14.3448	1.78788	1.50273	30.4788
14.7241	1.78788	1.50273	28.9484
15.1034	1.78788	1.50273	26.3412
15.4828	1.78788	1.50273	21.1553
15.8621	1.78788	1.50273	9.79324
16.2414	1.78788	1.50273	-16.361
16.6207	1.78788	1.50273	-77.9427
17	1.78788	1.50273	-224.374
6	1.79798	1.54138	45.4821
6.37931	1.79798	1.54138	45.9883
6.75862	1.79798	1.54138	45.7578
7.13793	1.79798	1.54138	45.2196
7.51724	1.79798	1.54138	44.5531
7.89655	1.79798	1.54138	43.8329
8.27586	1.79798	1.54138	43.0903
8.65517	1.79798	1.54138	42.3384
9.03448	1.79798	1.54138	41.5826
9.41379	1.79798	1.54138	40.8251
9.7931	1.79798	1.54138	40.067
10.1724	1.79798	1.54138	39.3086
10.5517	1.79798	1.54138	38.55
10.931	1.79798	1.54138	37.7913
11.3103	1.79798	1.54138	37.0324
11.6897	1.79798	1.54138	36.273
12.069	1.79798	1.54138	35.5127
12.4483	1.79798	1.54138	34.75
12.8276	1.79798	1.54138	33.9816
13.2069	1.79798	1.54138	33.1995
13.5862	1.79798	1.54138	32.3847
13.9655	1.79798	1.54138	31.4915
14.3448	1.79798	1.54138	30.4106
14.7241	1.79798	1.54138	28.8802
15.1034	1.79798	1.54138	26.273
15.4828	1.79798	1.54138	21.0871
15.8621	1.79798	1.54138	9.72505
16.2414	1.79798	1.54138	-16.4291
16.6207	1.79798	1.54138	-78.0109
17	1.79798	1.54138	-224.442
6	1.80808	1.58084	45.4016
6.37931	1.80808	1.58084	45.9078
6.75862	1.80808	1.58084	45.6773
7.13793	1.80808	1.58084	45.1392
7.51724	1.80808	1.58084	44.4726
7.89655	1.80808	1.58084	43.7524
8.27586	1.80808	1.58084	43.0098
8.65517	1.80808	1.58084	42.2579
9.03448	1.80808	1.58084	41.5021
9.41379	1.80808	1.58084	40.7446
9.7931	1.80808	1.58084	39.9865
10.1724	1.80808	1.58084	39.2281
10.5517	1.80808	1.58084	38.4695
10.931	1.80808	1.58084	37.7108
11.3103	1.80808	1.58084	36.9519
11.6897	1.80808	1.58084	36.1925
12.069	1.80808	1.58084	35.4322
12.4483	1.80808	1.58084	34.6695
12.8276	1.80808	1.58084	33.9011
13.2069	1.80808	1.58084	33.119
13.5862	1.80808	1.58084	32.3042
13.9655	1.80808	1.58084	31.411
14.3448	1.80808	1.58084	30.3302
14.7241	1.80808	1.58084	28.7997
15.1034	1.80808	1.58084	26.1926
15.4828	1.80808	1.58084	21.0067
15.8621	1.80808	1.58084	9.64457
16.2414	1.80808	1.58084	-16.5096
16.6207	1.80808	1.58084	-78.0913
17	1.80808	1.58084	-224.523
6	1.81818	1.62113	45.3033
6.37931	1.81818	1.62113	45.8095
6.75862	1.81818	1.62113	45.579
7.13793	1.81818	1.62113	45.0409
7.51724	1.81818	1.62113	44.3743
7.89655	1.81818	1.62113	43.6541
8.27586	1.81818	1.62113	42.9116
8.65517	1.81818	1.62113	42.1597
9.03448	1.81818	1.62113	41.4038
9.41379	1.81818	1.62113	40.6464
9.7931	1.81818	1.62113	39.8882
10.1724	1.81818	1.62113	39.1298
10.5517	1.81818	1.62113	38.3712
10.931	1.81818	1.62113	37.6125
11.3103	1.81818	1.62113	36.8536
11.6897	1.81818	1.62113	36.0943
12.069	1.81818	1.62113	35.3339
12.4483	1.81818	1.62113	34.5712
12.8276	1.81818	1.62113	33.8028
13.2069	1.81818	1.62113	33.0207
13.5862	1.81818	1.62113	32.2059
13.9655	1.81818	1.62113	31.3128
14.3448	1.81818	1.62113	30.2319
14.7241	1.81818	1.62113	28.7014
15.1034	1.81818	1.62113	26.0943
15.4828	1.81818	1.62113	20.9084
15.8621	1.81818	1.62113	9.5463
16.2414	1.81818	1.62113	-16.6079
16.6207	1.81818	1.62113	-78.1896
17	1.81818	1.62113	-224.621
6	1.82828	1.66228	45.177
6.37931	1.82828	1.66228	45.6832
6.75862	1.82828	1.66228	45.4526
7.13793	1.82828	1.66228	44.9145
7.51724	1.82828	1.66228	44.248
7.89655	1.82828	1.66228	43.5278
8.27586	1.82828	1.66228	42.7852
8.65517	1.82828	1.66228	42.0333
9.03448	1.82828	1.66228	41.2775
9.41379	1.82828	1.66228	40.52
9.7931	1.82828	1.66228	39.7619
10.1724	1.82828	1.66228	39.0034
10.5517	1.82828	1.66228	38.2448
10.931	1.82828	1.66228	37.4861
11.3103	1.82828	1.66228	36.7272
11.6897	1.82828	1.66228	35.9679
12.069	1.82828	1.66228	35.2076
12.4483	1.82828	1.66228	34.4449
12.8276	1.82828	1.66228	33.6765
13.2069	1.82828	1.66228	32.8944
13.5862	1.82828	1.66228	32.0796
13.9655	1.82828	1.66228	31.1864
14.3448	1.82828	1.66228	30.1055
14.7241	1.82828	1.66228	28.5751
15.1034	1.82828	1.66228	25.9679
15.4828	1.82828	1.66228	20.782
15.8621	1.82828	1.66228	9.41994
16.2414	1.82828	1.66228	-16.7343
16.6207	1.82828	1.66228	-78.316
17	1.82828	1.66228	-224.748
6	1.83838	1.70626	45.0982
6.37931	1.83838	1.70626	45.6044
6.75862	1.83838	1.70626	45.3739
7.13793	1.83838	1.70626	44.8358
7.51724	1.83838	1.70626	44.1692
7.89655	1.83838	1.70626	43.4491
8.27586	1.83838	1.70626	42.7065
8.65517	1.83838	1.70626	41.9546
9.03448	1.83838	1.70626	41.1987
9.41379	1.83838	1.70626	40.4413
9.7931	1.83838	1.70626	39.6831
10.1724	1.83838	1.70626	38.9247
10.5517	1.83838	1.70626	38.1661
10.931	1.83838	1.70626	37.4074
11.3103	1.83838	1.70626	36.6485
11.6897	1.83838	1.70626	35.8892
12.069	1.83838	1.70626	35.1288
12.4483	1.83838	1.70626	34.3661
12.8276	1.83838	1.70626	33.5977
13.2069	1.83838	1.70626	32.8156
13.5862	1.83838	1.70626	32.0008
13.9655	1.83838	1.70626	31.1077
14.3448	1.83838	1.70626	30.0268
14.7241	1.83838	1.70626	28.4963
15.1034	1.83838	1.70626	25.8892
15.4828	1.83838	1.70626	20.7033
15.8621	1.83838	1.70626	9.3412
16.2414	1.83838	1.70626	-16.813
16.6207	1.83838	1.70626	-78.3947
17	1.83838	1.70626	-224.826
6	1.84848	1.75121	45.0017
6.37931	1.84848	1.75121	45.5079
6.75862	1.84848	1.75121	45.2774
7.13793	1.84848	1.75121	44.7393
7.51724	1.84848	1.75121	44.0727
7.89655	1.84848	1.75121	43.3525
8.27586	1.84848	1.75121	42.61
8.65517	1.84848	1.75121	41.858
9.03448	1.84848	1.75121	41.1022
9.41379	1.84848	1.75121	40.3448
9.7931	1.84848	1.75121	39.5866
10.1724	1.84848	1.75121	38.8282
10.5517	1.84848	1.75121	38.0696
10.931	1.84848	1.75121	37.3109
11.3103	1.84848	1.75121	36.552
11.6897	1.84848	1.75121	35.7926
12.069	1.84848	1.75121	35.0323
12.4483	1.84848	1.75121	34.2696
12.8276	1.84848	1.75121	33.5012
13.2069	1.84848	1.75121	32.7191
13.5862	1.84848	1.75121	31.9043
13.9655	1.84848	1.75121	31.0111
14.3448	1.84848	1.75121	29.9303
14.7241	1.84848	1.75121	28.3998
15.1034	1.84848	1.75121	25.7927
15.4828	1.84848	1.75121	20.6068
15.8621	1.84848	1.75121	9.24468
16.2414	1.84848	1.75121	-16.9095
16.6207	1.84848	1.75121	-78.4912
17	1.84848	1.75121	-224.923
6	1.85859	1.79716	44.8771
6.37931	1.85859	1.79716	45.3833
6.75862	1.85859	1.79716	45.1528
7.13793	1.85859	1.79716	44.6147
7.51724	1.85859	1.79716	43.9481
7.89655	1.85859	1.79716	43.2279
8.27586	1.85859	1.79716	42.4853
8.65517	1.85859	1.79716	41.7334
9.03448	1.85859	1.79716	40.9776
9.41379	1.85859	1.79716	40.2201
9.7931	1.85859	1.79716	39.462
10.1724	1.85859	1.79716	38.7036
10.5517	1.85859	1.79716	37.945
10.931	1.85859	1.79716	37.1863
11.3103	1.85859	1.79716	36.4274
11.6897	1.85859	1.79716	35.668
12.069	1.85859	1.79716	34.9077
12.4483	1.85859	1.79716	34.145
12.8276	1.85859	1.79716	33.3766
13.2069	1.85859	1.79716	32.5945
13.5862	1.85859	1.79716	31.7797
13.9655	1.85859	1.79716	30.8865
14.3448	1.85859	1.79716	29.8057
14.7241	1.85859	1.79716	28.2752
15.1034	1.85859	1.79716	25.6681
15.4828	1.85859	1.79716	20.4822
15.8621	1.85859	1.79716	9.12007
16.2414	1.85859	1.79716	-17.0341
16.6207	1.85859	1.79716	-78.6158
17	1.85859	1.79716	-225.047
6	1.86869	1.84414	44.7013
6.37931	1.86869	1.84414	45.2075
6.75862	1.86869	1.84414	44.977
7.13793	1.86869	1.84414	44.4388
7.51724	1.86869	1.84414	43.7723
7.89655	1.86869	1.84414	43.0521
8.27586	1.86869	1.84414	42.3095
8.65517	1.86869	1.84414	41.5576
9.03448	1.86869	1.84414	40.8018
9.41379	1.86869	1.84414	40.0443
9.7931	1.86869	1.84414	39.2862
10.1724	1.86869	1.84414	38.5277
10.5517	1.86869	1.84414	37.7692
10.931	1.86869	1.84414	37.0104
11.3103	1.86869	1.84414	36.2515
11.6897	1.86869	1.84414	35.4922
12.069	1.86869	1.84414	34.7319
12.4483	1.86869	1.84414	33.9692
12.8276	1.86869	1.84414	33.2008
13.2069	1.86869	1.84414	32.4187
13.5862	1.86869	1.84414	31.6039
13.9655	1.86869	1.84414	30.7107
14.3448	1.86869	1.84414	29.6298
14.7241	1.86869	1.84414	28.0994
15.1034	1.86869	1.84414	25.4922
15.4828	1.86869	1.84414	20.3063
15.8621	1.86869	1.84414	8.94425
16.2414	1.86869	1.84414	-17.21
16.6207	1.86869	1.84414	-78.7917
17	1.86869	1.84414	-225.223
6	1.87879	1.89216	44.4005
6.37931	1.87879	1.89216	44.9067
6.75862	1.87879	1.89216	44.6761
7.13793	1.87879	1.89216	44.138
7.51724	1.87879	1.89216	43.4715
7.89655	1.87879	1.89216	42.7513
8.27586	1.87879	1.89216	42.0087
8.65517	1.87879	1.89216	41.2568
9.03448	1.87879	1.89216	40.501
9.41379	1.87879	1.89216	39.7435
9.7931	1.87879	1.89216	38.9854
10.1724	1.87879	1.89216	38.2269
10.5517	1.87879	1.89216	37.4683
10.931	1.87879	1.89216	36.7096
11.3103	1.87879	1.89216	35.9507
11.6897	1.87879	1.89216	35.1914
12.069	1.87879	1.89216	34.4311
12.4483	1.87879	1.89216	33.6684
12.8276	1.87879	1.89216	32.9
13.2069	1.87879	1.89216	32.1179
13.5862	1.87879	1.89216	31.3031
13.9655	1.87879	1.89216	30.4099
14.3448	1.87879	1.89216	29.329
14.7241	1.87879	1.89216	27.7986
15.1034	1.87879	1.89216	25.1914
15.4828	1.87879	1.89216	20.0055
15.8621	1.87879	1.89216	8.64344
16.2414	1.87879	1.89216	-17.5108
16.6207	1.87879	1.89216	-79.0925
17	1.87879	1.89216	-225.524
6	1.88889	1.94126	-nan(ind)
6.37931	1.88889	1.94126	-nan(ind)
6.75862	1.88889	1.94126	-nan(ind)
7.13793	1.88889	1.94126	-nan(ind)
7.51724	1.88889	1.94126	-nan(ind)
7.89655	1.88889	1.94126	-nan(ind)
8.27586	1.88889	1.94126	-nan(ind)
8.65517	1.88889	1.94126	-nan(ind)
9.03448	1.88889	1.94126	-nan(ind)
9.41379	1.88889	1.94126	-nan(ind)
9.7931	1.88889	1.94126	-nan(ind)
10.1724	1.88889	1.94126	-nan(ind)
10.5517	1.88889	1.94126	-nan(ind)
10.931	1.88889	1.94126	-nan(ind)
11.3103	1.88889	1.94126	-nan(ind)
11.6897	1.88889	1.94126	-nan(ind)
12.069	1.88889	1.94126	-nan(ind)
12.4483	1.88889	1.94126	-nan(ind)
12.8276	1.88889	1.94126	-nan(ind)
13.2069	1.88889	1.94126	-nan(ind)
13.5862	1.88889	1.94126	-nan(ind)
13.9655	1.88889	1.94126	-nan(ind)
14.3448	1.88889	1.94126	-nan(ind)
14.7241	1.88889	1.94126	-nan(ind)
15.1034	1.88889	1.94126	-nan(ind)
15.4828	1.88889	1.94126	-nan(ind)
15.8621	1.88889	1.94126	-nan(ind)
16.2414	1.88889	1.94126	-nan(ind)
16.6207	1.88889	1.94126	-nan(ind)
17	1.88889	1.94126	-nan(ind)
6	1.89899	1.99371	-inf
6.37931	1.89899	1.99371	-inf
6.75862	1.89899	1.99371	-inf
7.13793	1.89899	1.99371	-inf
7.51724	1.89899	1.99371	-inf
7.89655	1.89899	1.99371	-inf
8.27586	1.89899	1.99371	-inf
8.65517	1.89899	1.99371	-inf
9.03448	1.89899	1.99371	-inf
9.41379	1.89899	1.99371	-inf
9.7931	1.89899	1.99371	-inf
10.1724	1.89899	1.99371	-inf
10.5517	1.89899	1.99371	-inf
10.931	1.89899	1.99371	-inf
11.3103	1.89899	1.99371	-inf
11.6897	1.89899	1.99371	-inf
12.069	1.89899	1.99371	-inf
12.4483	1.89899	1.99371	-inf
12.8276	1.89899	1.99371	-inf
13.2069	1.89899	1.99371	-inf
13.5862	1.89899	1.99371	-inf
13.9655	1.89899	1.99371	-inf
14.3448	1.89899	1.99371	-inf
14.7241	1.89899	1.99371	-inf
15.1034	1.89899	1.99371	-inf
15.4828	1.89899	1.99371	-inf
15.8621	1.89899	1.99371	-inf
16.2414	1.89899	1.99371	-inf
16.6207	1.89899	1.99371	-inf
17	1.89899	1.99371	-inf
6	1.90909	2.0474	-inf
6.37931	1.90909	2.0474	-inf
6.75862	1.90909	2.0474	-inf
7.13793	1.90909	2.0474	-inf
7.51724	1.90909	2.0474	-inf
7.89655	1.90909	2.0474	-inf
8.27586	1.90909	2.0474	-inf
8.65517	1.90909	2.0474	-inf
9.03448	1.90909	2.0474	-inf
9.41379	1.90909	2.0474	-inf
9.7931	1.90909	2.0474	-inf
10.1724	1.90909	2.0474	-inf
10.5517	1.90909	2.0474	-inf
10.931	1.90909	2.0474	-inf
11.3103	1.90909	2.0474	-inf
11.6897	1.90909	2.0474	-inf
12.069	1.90909	2.0474	-inf
12.4483	1.90909	2.0474	-inf
12.8276	1.90909	2.0474	-inf
13.2069	1.90909	2.0474	-inf
13.5862	1.90909	2.0474	-inf
13.9655	1.90909	2.0474	-inf
14.3448	1.90909	2.0474	-inf
14.7241	1.90909	2.0474	-inf
15.1034	1.90909	2.0474	-inf
15.4828	1.90909	2.0474	-inf
15.8621	1.90909	2.0474	-inf
16.2414	1.90909	2.0474	-inf
16.6207	1.90909	2.0474	-inf
17	1.90909	2.0474	-inf
6	1.91919	2.10235	-inf
6.37931	1.91919	2.10235	-inf
6.75862	1.91919	2.10235	-inf
7.13793	1.91919	2.10235	-inf
7.51724	1.91919	2.10235	-inf
7.89655	1.91919	2.10235	-inf
8.27586	1.91919	2.10235	-inf
8.65517	1.91919	2.10235	-inf
9.03448	1.91919	2.10235	-inf
9.41379	1.91919	2.10235	-inf
9.7931	1.91919	2.10235	-inf
10.1724	1.91919	2.10235	-inf
10.5517	1.91919	2.10235	-inf
10.931	1.91919	2.10235	-inf
11.3103	1.91919	2.10235	-inf
11.6897	1.91919	2.10235	-inf
12.069	1.91919	2.10235	-inf
12.4483	1.91919	2.10235	-inf
12.8276	1.91919	2.10235	-inf
13.2069	1.91919	2.10235	-inf
13.5862	1.91919	2.10235	-inf
13.9655	1.91919	2.10235	-inf
14.3448	1.91919	2.10235	-inf
14.7241	1.91919	2.10235	-inf
15.1034	1.91919	2.10235	-inf
15.4828	1.91919	2.10235	-inf
15.8621	1.91919	2.10235	-inf
16.2414	1.91919	2.10235	-inf
16.6207	1.91919	2.10235	-inf
17	1.91919	2.10235	-inf
6	1.92929	2.1586	-inf
6.37931	1.92929	2.1586	-inf
6.75862	1.92929	2.1586	-inf
7.13793	1.92929	2.1586	-inf
7.51724	1.92929	2.1586	-inf
7.89655	1.92929	2.1586	-inf
8.27586	1.92929	2.1586	-inf
8.65517	1.92929	2.1586	-inf
9.03448	1.92929	2.1586	-inf
9.41379	1.92929	2.1586	-inf
9.7931	1.92929	2.1586	-inf
10.1724	1.92929	2.1586	-inf
10.5517	1.92929	2.1586	-inf
10.931	1.92929	2.1586	-inf
11.3103	1.92929	2.1586	-inf
11.6897	1.92929	2.1586	-inf
12.069	1.92929	2.1586	-inf
12.4483	1.92929	2.1586	-inf
12.8276	1.92929	2.1586	-inf
13.2069	1.92929	2.1586	-inf
13.5862	1.92929	2.1586	-inf
13.9655	1.92929	2.1586	-inf
14.3448	1.92929	2.1586	-inf
14.7241	1.92929	2.1586	-inf
15.1034	1.92929	2.1586	-inf
15.4828	1.92929	2.1586	-inf
15.8621	1.92929	2.1586	-inf
16.2414	1.92929	2.1586	-inf
16.6207	1.92929	2.1586	-inf
17	1.92929	2.1586	-inf
6	1.93939	2.21617	-inf
6.37931	1.93939	2.21617	-inf
6.75862	1.93939	2.21617	-inf
7.13793	1.93939	2.21617	-inf
7.51724	1.93939	2.21617	-inf
7.89655	1.93939	2.21617	-inf
8.27586	1.93939	2.21617	-inf
8.65517	1.93939	2.21617	-inf
9.03448	1.93939	2.21617	-inf
9.41379	1.93939	2.21617	-inf
9.7931	1.93939	2.21617	-inf
10.1724	1.93939	2.21617	-inf
10.5517	1.93939	2.21617	-inf
10.931	1.93939	2.21617	-inf
11.3103	1.93939	2.21617	-inf
11.6897	1.93939	2.21617	-inf
12.069	1.93939	2.21617	-inf
12.4483	1.93939	2.21617	-inf
12.8276	1.93939	2.21617	-inf
13.2069	1.93939	2.21617	-inf
13.5862	1.93939	2.21617	-inf
13.9655	1.93939	2.21617	-inf
14.3448	1.93939	2.21617	-inf
14.7241	1.93939	2.21617	-inf
15.1034	1.93939	2.21617	-inf
15.4828	1.93939	2.21617	-inf
15.8621	1.93939	2.21617	-inf
16.2414	1.93939	2.21617	-inf
16.6207	1.93939	2.21617	-inf
17	1.93939	2.21617	-inf
6	1.94949	2.27509	-inf
6.37931	1.94949	2.27509	-inf
6.75862	1.94949	2.27509	-inf
7.13793	1.94949	2.27509	-inf
7.51724	1.94949	2.27509	-inf
7.89655	1.94949	2.27509	-inf
8.27586	1.94949	2.27509	-inf
8.65517	1.94949	2.27509	-inf
9.03448	1.94949	2.27509	-inf
9.41379	1.94949	2.27509	-inf
9.7931	1.94949	2.27509	-inf
10.1724	1.94949	2.27509	-inf
10.5517	1.94949	2.27509	-inf
10.931	1.94949	2.27509	-inf
11.3103	1.94949	2.27509	-inf
11.6897	1.94949	2.27509	-inf
12.069	1.94949	2.27509	-inf
12.4483	1.94949	2.27509	-inf
12.8276	1.94949	2.27509	-inf
13.2069	1.94949	2.27509	-inf
13.5862	1.94949	2.27509	-inf
13.9655	1.94949	2.27509	-inf
14.3448	1.94949	2.27509	-inf
14.7241	1.94949	2.27509	-inf
15.1034	1.94949	2.27509	-inf
15.4828	1.94949	2.27509	-inf
15.8621	1.94949	2.27509	-inf
16.2414	1.94949	2.27509	-inf
16.6207	1.94949	2.27509	-inf
17	1.94949	2.27509	-inf
6	1.9596	2.3354	-inf
6.37931	1.9596	2.3354	-inf
6.75862	1.9596	2.3354	-inf
7.13793	1.9596	2.3354	-inf
7.51724	1.9596	2.3354	-inf
7.89655	1.9596	2.3354	-inf
8.27586	1.9596	2.3354	-inf
8.65517	1.9596	2.3354	-inf
9.03448	1.9596	2.3354	-inf
9.41379	1.9596	2.3354	-inf
9.7931	1.9596	2.3354	-inf
10.1724	1.9596	2.3354	-inf
10.5517	1.9596	2.3354	-inf
10.931	1.9596	2.3354	-inf
11.3103	1.9596	2.3354	-inf
11.6897	1.9596	2.3354	-inf
12.069	1.9596	2.3354	-inf
12.4483	1.9596	2.3354	-inf
12.8276	1.9596	2.3354	-inf
13.2069	1.9596	2.3354	-inf
13.5862	1.9596	2.3354	-inf
13.9655	1.9596	2.3354	-inf
14.3448	1.9596	2.3354	-inf
14.7241	1.9596	2.3354	-inf
15.1034	1.9596	2.3354	-inf
15.4828	1.9596	2.3354	-inf
15.8621	1.9596	2.3354	-inf
16.2414	1.9596	2.3354	-inf
16.6207	1.9596	2.3354	-inf
17	1.9596	2.3354	-inf
6	1.9697	2.39713	-inf
6.37931	1.9697	2.39713	-inf
6.75862	1.9697	2.39713	-inf
7.13793	1.9697	2.39713	-inf
7.51724	1.9697	2.39713	-inf
7.89655	1.9697	2.39713	-inf
8.27586	1.9697	2.39713	-inf
8.65517	1.9697	2.39713	-inf
9.03448	1.9697	2.39713	-inf
9.41379	1.9697	2.39713	-inf
9.7931	1.9697	2.39713	-inf
10.1724	1.9697	2.39713	-inf
10.5517	1.9697	2.39713	-inf
10.931	1.9697	2.39713	-inf
11.3103	1.9697	2.39713	-inf
11.6897	1.9697	2.39713	-inf
12.069	1.9697	2.39713	-inf
12.4483	1.9697	2.39713	-inf
12.8276	1.9697	2.39713	-inf
13.2069	1.9697	2.39713	-inf
13.5862	1.9697	2.39713	-inf
13.9655	1.9697	2.39713	-inf
14.3448	1.9697	2.39713	-inf
14.7241	1.9697	2.39713	-inf
15.1034	1.9697	2.39713	-inf
15.4828	1.9697	2.39713	-inf
15.8621	1.9697	2.39713	-inf
16.2414	1.9697	2.39713	-inf
16.6207	1.9697	2.39713	-inf
17	1.9697	2.39713	-inf
6	1.9798	2.46031	-inf
6.37931	1.9798	2.46031	-inf
6.75862	1.9798	2.46031	-inf
7.13793	1.9798	2.46031	-inf
7.51724	1.9798	2.46031	-inf
7.89655	1.9798	2.46031	-inf
8.27586	1.9798	2.46031	-inf
8.65517	1.9798	2.46031	-inf
9.03448	1.9798	2.46031	-inf
9.41379	1.9798	2.46031	-inf
9.7931	1.9798	2.46031	-inf
10.1724	1.9798	2.46031	-inf
10.5517	1.9798	2.46031	-inf
10.931	1.9798	2.46031	-inf
11.3103	1.9798	2.46031	-inf
11.6897	1.9798	2.46031	-inf
12.069	1.9798	2.46031	-inf
12.4483	1.9798	2.46031	-inf
12.8276	1.9798	2.46031	-inf
13.2069	1.9798	2.46031	-inf
13.5862	1.9798	2.46031	-inf
13.9655	1.9798	2.46031	-inf
14.3448	1.9798	2.46031	-inf
14.7241	1.9798	2.46031	-inf
15.1034	1.9798	2.46031	-inf
15.4828	1.9798	2.46031	-inf
15.8621	1.9798	2.46031	-inf
16.2414	1.9798	2.46031	-inf
16.6207	1.9798	2.46031	-inf
17	1.9798	2.46031	-inf
6	1.9899	2.52498	-inf
6.37931	1.9899	2.52498	-inf
6.75862	1.9899	2.52498	-inf
7.13793	1.9899	2.52498	-inf
7.51724	1.9899	2.52498	-inf
7.89655	1.9899	2.52498	-inf
8.27586	1.9899	2.52498	-inf
8.65517	1.9899	2.52498	-inf
9.03448	1.9899	2.52498	-inf
9.41379	1.9899	2.52498	-inf
9.7931	1.9899	2.52498	-inf
10.1724	1.9899	2.52498	-inf
10.5517	1.9899	2.52498	-inf
10.931	1.9899	2.52498	-inf
11.3103	1.9899	2.52498	-inf
11.6897	1.9899	2.52498	-inf
12.069	1.9899	2.52498	-inf
12.4483	1.9899	2.52498	-inf
12.8276	1.9899	2.52498	-inf
13.2069	1.9899	2.52498	-inf
13.5862	1.9899	2.52498	-inf
13.9655	1.9899	2.52498	-inf
14.3448	1.9899	2.52498	-inf
14.7241	1.9899	2.52498	-inf
15.1034	1.9899	2.52498	-inf
15.4828	1.9899	2.52498	-inf
15.8621	1.9899	2.52498	-inf
16.2414	1.9899	2.52498	-inf
16.6207	1.9899	2.52498	-inf
17	1.9899	2.52498	-inf
6	2	2.59117	-inf
6.37931	2	2.59117	-inf
6.75862	2	2.59117	-inf
7.13793	2	2.59117	-inf
7.51724	2	2.59117	-inf
7.89655	2	2.59117	-inf
8.27586	2	2.59117	-inf
8.65517	2	2.59117	-inf
9.03448	2	2.59117	-inf
9.41379	2	2.59117	-inf
9.7931	2	2.59117	-inf
10.1724	2	2.59117	-inf
10.5517	2	2.59117	-inf
10.931	2	2.59117	-inf
11.3103	2	2.59117	-inf
11.6897	2	2.59117	-inf
12.069	2	2.59117	-inf
12.4483	2	2.59117	-inf
12.8276	2	2.59117	-inf
13.2069	2	2.59117	-inf
13.5862	2	2.59117	-inf
13.9655	2	2.59117	-inf
14.3448	2	2.59117	-inf
14.7241	2	2.59117	-inf
15.1034	2	2.59117	-inf
15.4828	2	2.59117	-inf
15.8621	2	2.59117	-inf
16.2414	2	2.59117	-inf
16.6207	2	2.59117	-inf
17	2	2.59117	-inf
