log(E/eV)	z/pc	t/yr	Synchr	IC	IC - IR	SSC
-6	10	32.7213	36.8267	0	0	0
-5.2069	10	32.7213	37.262	0	0	26.6188
-4.41379	10	32.7213	37.6659	0	0	28.0085
-3.62069	10	32.7213	38.0502	0	21.9077	29.103
-2.82759	10	32.7213	38.4214	0	24.9884	29.9629
-2.03448	10	32.7213	38.7929	0	27.4188	30.6609
-1.24138	10	32.7213	39.1867	23.4338	29.5165	31.2663
-0.448276	10	32.7213	39.5937	26.0067	30.9658	31.8071
0.344828	10	32.7213	39.9759	28.3141	32.0831	32.317
1.13793	10	32.7213	40.3022	30.2464	32.9281	32.799
1.93103	10	32.7213	40.5423	31.581	33.5661	33.2663
2.72414	10	32.7213	40.6893	32.6254	34.0757	33.7161
3.51724	10	32.7213	40.7597	33.4079	34.5139	34.1645
4.31034	10	32.7213	40.7722	33.9907	34.9417	34.5843
5.10345	10	32.7213	40.7355	34.4902	35.3458	35.0217
5.89655	10	32.7213	40.6681	34.9175	35.7315	35.4255
6.68966	10	32.7213	40.5511	35.3368	36.112	35.8073
7.48276	10	32.7213	40.3227	35.6742	36.4596	36.1585
8.27586	10	32.7213	39.888	36.0212	36.9418	36.4791
9.06897	10	32.7213	39.0526	36.2913	37.3	36.7709
9.86207	10	32.7213	37.2911	36.5319	37.5581	37.0099
10.6552	10	32.7213	34.8521	36.6056	37.8713	37.1174
11.4483	10	32.7213	29.8221	35.9413	37.7877	37.0418
12.2414	10	32.7213	10.5568	34.6073	37.4704	36.68
13.0345	10	32.7213	-114.594	32.7991	36.5078	36.2039
13.8276	10	32.7213	0	30.8642	34.83	35.3885
14.6207	10	32.7213	0	28.1062	32.1406	33.6611
15.4138	10	32.7213	0	20.1857	24.232	26.6558
16.2069	10	32.7213	0	0	0	0
17	10	32.7213	0	0	0	0
-5.45569	10.2353	4.95522	39.0993	0	0	0
-4.66259	10.2353	4.95522	39.5317	0	0	29.1094
-3.86948	10.2353	4.95522	39.9341	0	0	30.4677
-3.07638	10.2353	4.95522	40.317	0	26.2223	31.5178
-2.28328	10.2353	4.95522	40.6834	0	29.0969	32.3517
-1.49017	10.2353	4.95522	41.0365	0	31.3392	33.0366
-0.697068	10.2353	4.95522	41.3753	27.5031	32.9537	33.6344
0.0960353	10.2353	4.95522	41.6675	30.0259	34.1179	34.1698
0.889139	10.2353	4.95522	41.8731	32.1326	35.0021	34.6735
1.68224	10.2353	4.95522	41.9997	33.5807	35.6922	35.1461
2.47535	10.2353	4.95522	42.0704	34.6664	36.2195	35.5986
3.26845	10.2353	4.95522	42.1052	35.4909	36.6812	36.0247
4.06155	10.2353	4.95522	42.1142	36.1207	37.1222	36.4421
4.85466	10.2353	4.95522	42.097	36.6481	37.5129	36.8006
5.64776	10.2353	4.95522	42.0469	37.1011	37.892	37.1865
6.44086	10.2353	4.95522	41.9743	37.514	38.2771	37.5279
7.23397	10.2353	4.95522	41.8549	37.8913	38.6074	37.8482
8.02707	10.2353	4.95522	41.6246	38.2985	38.9143	38.1381
8.82017	10.2353	4.95522	41.188	38.6134	39.2197	38.3983
9.61328	10.2353	4.95522	40.3505	38.844	39.3354	38.6035
10.4064	10.2353	4.95522	38.573	38.9799	39.4295	38.7069
11.1995	10.2353	4.95522	36.0759	38.9227	39.4126	38.6263
11.9926	10.2353	4.95522	31.0472	38.3499	39.3305	38.4234
12.7857	10.2353	4.95522	11.3036	36.9901	39.1193	38.0411
13.5788	10.2353	4.95522	-116.817	35.1935	38.4437	37.5824
14.3719	10.2353	4.95522	0	33.2661	37.1095	36.7767
15.165	10.2353	4.95522	0	30.5069	34.5151	35.0532
15.9581	10.2353	4.95522	0	22.5869	26.6418	28.0497
16.7512	10.2353	4.95522	0	0	0	0
17.5443	10.2353	4.95522	0	0	0	0
-5.34792	10.4762	3.13011	39.4694	0	0	0
-4.55481	10.4762	3.13011	39.8989	0	0	29.5455
-3.76171	10.4762	3.13011	40.2995	0	0	30.8742
-2.96861	10.4762	3.13011	40.6795	0	27.0929	31.8779
-2.1755	10.4762	3.13011	41.0372	0	29.9397	32.6844
-1.3824	10.4762	3.13011	41.3671	0	32.1239	33.3551
-0.589296	10.4762	3.13011	41.6637	28.3502	33.6286	33.9442
0.203807	10.4762	3.13011	41.9051	30.8553	34.7038	34.4731
0.996911	10.4762	3.13011	42.0643	32.8848	35.5123	34.9699
1.79001	10.4762	3.13011	42.159	34.2368	36.1608	35.4346
2.58312	10.4762	3.13011	42.2118	35.2298	36.6639	35.877
3.37622	10.4762	3.13011	42.2379	35.9886	37.1167	36.2888
4.16932	10.4762	3.13011	42.2428	36.5767	37.5578	36.6896
4.96243	10.4762	3.13011	42.2237	37.0841	37.9569	37.0217
5.75553	10.4762	3.13011	42.1726	37.5295	38.3187	37.3896
6.54863	10.4762	3.13011	42.0998	37.9425	38.6913	37.7077
7.34174	10.4762	3.13011	41.98	38.3062	38.9773	38.0033
8.13484	10.4762	3.13011	41.7485	38.7163	39.2257	38.2644
8.92795	10.4762	3.13011	41.3104	39.007	39.4483	38.4923
9.72105	10.4762	3.13011	40.4709	39.1978	39.5559	38.6593
10.5142	10.4762	3.13011	38.6792	39.2715	39.6122	38.7206
11.3073	10.4762	3.13011	36.1203	39.1553	39.5917	38.6166
12.1004	10.4762	3.13011	31.0929	38.6601	39.5092	38.4195
12.8935	10.4762	3.13011	10.8598	37.3301	39.2745	38.06
13.6866	10.4762	3.13011	-120.3	35.5452	38.6943	37.6203
14.4797	10.4762	3.13011	0	33.6248	37.4361	36.8268
15.2728	10.4762	3.13011	0	30.8701	34.8591	35.1095
16.0659	10.4762	3.13011	0	22.95	26.9898	28.1089
16.859	10.4762	3.13011	0	0	0	0
17.6521	10.4762	3.13011	0	0	0	0
-5.30129	10.7227	2.5814	39.6619	0	0	0
-4.50819	10.7227	2.5814	40.089	0	0	29.8236
-3.71508	10.7227	2.5814	40.488	0	0	31.1349
-2.92198	10.7227	2.5814	40.8649	0	27.5373	32.1088
-2.12888	10.7227	2.5814	41.215	0	30.3721	32.8972
-1.33577	10.7227	2.5814	41.5291	0	32.527	33.558
-0.542669	10.7227	2.5814	41.803	28.7858	33.9826	34.1407
0.250434	10.7227	2.5814	42.0214	31.2817	35.0071	34.6647
1.04354	10.7227	2.5814	42.1623	33.2723	35.7761	35.1567
1.83664	10.7227	2.5814	42.2456	34.5802	36.4032	35.616
2.62974	10.7227	2.5814	42.2924	35.5214	36.8941	36.0518
3.42285	10.7227	2.5814	42.3155	36.2469	37.3423	36.4549
4.21595	10.7227	2.5814	42.319	36.8159	37.7825	36.8462
5.00906	10.7227	2.5814	42.299	37.313	38.1845	37.1645
5.80216	10.7227	2.5814	42.2474	37.7538	38.5352	37.5224
6.59526	10.7227	2.5814	42.1746	38.1667	38.8972	37.8277
7.38837	10.7227	2.5814	42.0544	38.5231	39.1577	38.1096
8.18147	10.7227	2.5814	41.8217	38.9281	39.3782	38.3553
8.97457	10.7227	2.5814	41.382	39.2024	39.5674	38.5667
9.76768	10.7227	2.5814	40.5408	39.3709	39.6817	38.7158
10.5608	10.7227	2.5814	38.7365	39.4178	39.7148	38.76
11.3539	10.7227	2.5814	36.112	39.2883	39.6976	38.65
12.147	10.7227	2.5814	31.0858	38.8204	39.616	38.4584
12.9401	10.7227	2.5814	10.3517	37.5079	39.3796	38.1109
13.7332	10.7227	2.5814	-123.92	35.7302	38.8335	37.6812
14.5263	10.7227	2.5814	0	33.8132	37.6056	36.8957
15.3194	10.7227	2.5814	0	31.0593	35.0379	35.1832
16.1125	10.7227	2.5814	0	23.138	27.1718	28.1854
16.9056	10.7227	2.5814	0	0	0	0
17.6987	10.7227	2.5814	0	0	0	0
-5.26358	10.975	2.21106	39.7866	0	0	0
-4.47048	10.975	2.21106	40.2116	0	0	29.9871
-3.67738	10.975	2.21106	40.6088	0	0	31.2852
-2.88427	10.975	2.21106	40.9824	0	27.8692	32.2346
-2.09117	10.975	2.21106	41.3253	0	30.6944	33.0076
-1.29806	10.975	2.21106	41.6268	0	32.824	33.6597
-0.504962	10.975	2.21106	41.8847	29.1111	34.2407	34.2367
0.288142	10.975	2.21106	42.0882	31.5992	35.2224	34.7563
1.08125	10.975	2.21106	42.2179	33.5563	35.9602	35.2439
1.87435	10.975	2.21106	42.2945	34.8293	36.5701	35.6986
2.66745	10.975	2.21106	42.3378	35.7279	37.0514	36.1289
3.46056	10.975	2.21106	42.3593	36.4273	37.4957	36.525
4.25366	10.975	2.21106	42.3619	36.9817	37.9345	36.9089
5.04676	10.975	2.21106	42.3413	37.4706	38.3378	37.2171
5.83987	10.975	2.21106	42.2891	37.9073	38.6778	37.5674
6.63297	10.975	2.21106	42.2163	38.3194	39.0314	37.8632
7.42607	10.975	2.21106	42.0957	38.6695	39.2725	38.1348
8.21918	10.975	2.21106	41.8619	39.0673	39.4753	38.3696
9.01228	10.975	2.21106	41.4205	39.329	39.6433	38.5695
9.80538	10.975	2.21106	40.5776	39.4819	39.765	38.7068
10.5985	10.975	2.21106	38.7623	39.5123	39.7789	38.7405
11.3916	10.975	2.21106	36.0685	39.3811	39.767	38.6282
12.1847	10.975	2.21106	31.0435	38.9319	39.6871	38.4409
12.9778	10.975	2.21106	9.79674	37.6364	39.4529	38.1021
13.7709	10.975	2.21106	-127.659	35.8655	38.9301	37.6793
14.564	10.975	2.21106	0	33.951	37.7261	36.9002
15.3571	10.975	2.21106	0	31.1972	35.1671	35.192
16.1502	10.975	2.21106	0	23.2746	27.3045	28.1969
16.9433	10.975	2.21106	0	0	0	0
17.7364	10.975	2.21106	0	0	0	0
-5.23633	11.2332	1.98554	39.8736	0	0	0
-4.44323	11.2332	1.98554	40.2968	0	0	30.0979
-3.65013	11.2332	1.98554	40.6922	0	0	31.3869
-2.85702	11.2332	1.98554	41.0628	0	28.1099	32.3186
-2.06392	11.2332	1.98554	41.3999	0	30.9283	33.0802
-1.27082	11.2332	1.98554	41.6921	0	33.0386	33.7256
-0.477713	11.2332	1.98554	41.9392	29.3474	34.4277	34.2981
0.31539	11.2332	1.98554	42.1329	31.8296	35.3779	34.8141
1.10849	11.2332	1.98554	42.2556	33.7615	36.0936	35.2983
1.9016	11.2332	1.98554	42.328	35.0095	36.6912	35.7493
2.6947	11.2332	1.98554	42.3692	35.8775	37.1657	36.1754
3.4878	11.2332	1.98554	42.3896	36.5585	37.607	36.5662
4.28091	11.2332	1.98554	42.3915	37.1029	38.0443	36.9448
5.07401	11.2332	1.98554	42.3704	37.5859	38.4478	37.2458
5.86711	11.2332	1.98554	42.3177	38.0195	38.7791	37.5905
6.66022	11.2332	1.98554	42.2449	38.4305	39.1268	37.8795
7.45332	11.2332	1.98554	42.1238	38.7758	39.3541	38.144
8.24642	11.2332	1.98554	41.8887	39.1664	39.5461	38.3712
9.03953	11.2332	1.98554	41.4458	39.4196	39.7014	38.5635
9.83263	11.2332	1.98554	40.6013	39.5618	39.8274	38.6931
10.6257	11.2332	1.98554	38.7763	39.582	39.8279	38.7203
11.4188	11.2332	1.98554	36.0097	39.4529	39.8209	38.607
12.2119	11.2332	1.98554	30.9859	39.0152	39.7428	38.423
13.005	11.2332	1.98554	9.2143	37.7335	39.5116	38.0899
13.7981	11.2332	1.98554	-131.501	35.9678	39.0033	37.672
14.5913	11.2332	1.98554	0	34.0548	37.8164	36.8976
15.3844	11.2332	1.98554	0	31.3008	35.2645	35.1927
16.1775	11.2332	1.98554	0	23.3772	27.4051	28.2
16.9706	11.2332	1.98554	0	0	0	0
17.7637	11.2332	1.98554	0	0	0	0
-5.21265	11.4976	1.81088	39.9335	0	0	0
-4.41955	11.4976	1.81088	40.355	0	0	30.1589
-3.62645	11.4976	1.81088	40.7487	0	0	31.4408
-2.83334	11.4976	1.81088	41.1166	0	28.3014	32.3584
-2.04024	11.4976	1.81088	41.4487	0	31.1141	33.1106
-1.24714	11.4976	1.81088	41.7336	0	33.207	33.7504
-0.454032	11.4976	1.81088	41.9727	29.5353	34.5729	34.3191
0.339071	11.4976	1.81088	42.1594	32.0123	35.4966	34.832
1.13217	11.4976	1.81088	42.2772	33.9217	36.1947	35.3133
1.92528	11.4976	1.81088	42.3467	35.1489	36.7821	35.7612
2.71838	11.4976	1.81088	42.3864	35.9919	37.2512	36.1838
3.51148	11.4976	1.81088	42.4059	36.6582	37.6898	36.5705
4.30459	11.4976	1.81088	42.4073	37.1946	38.1255	36.9448
5.09769	11.4976	1.81088	42.3857	37.6728	38.5288	37.2402
5.8908	11.4976	1.81088	42.3325	38.1036	38.8523	37.5805
6.6839	11.4976	1.81088	42.2596	38.5131	39.196	37.8644
7.477	11.4976	1.81088	42.1381	38.8545	39.4124	38.1234
8.27011	11.4976	1.81088	41.9017	39.2384	39.5973	38.3449
9.06321	11.4976	1.81088	41.4571	39.4852	39.7439	38.5316
9.85631	11.4976	1.81088	40.6111	39.6196	39.8724	38.6557
10.6494	11.4976	1.81088	38.7778	39.633	39.8621	38.6785
11.4425	11.4976	1.81088	35.935	39.508	39.8604	38.5649
12.2356	11.4976	1.81088	30.9123	39.0793	39.7839	38.3834
13.0287	11.4976	1.81088	8.60347	37.8106	39.556	38.0547
13.8218	11.4976	1.81088	-135.448	36.0495	39.059	37.6403
14.6149	11.4976	1.81088	0	34.1378	37.887	36.8696
15.408	11.4976	1.81088	0	31.3834	35.3419	35.1675
16.2011	11.4976	1.81088	0	23.4589	27.4856	28.1769
16.9942	11.4976	1.81088	0	0	0	0
17.7873	11.4976	1.81088	0	0	0	0
-5.19301	11.7681	1.6822	39.9764	0	0	0
-4.3999	11.7681	1.6822	40.3964	0	0	30.1927
-3.6068	11.7681	1.6822	40.7886	0	0	31.4694
-2.8137	11.7681	1.6822	41.1541	0	28.4535	32.3761
-2.02059	11.7681	1.6822	41.482	0	31.2614	33.121
-1.22749	11.7681	1.6822	41.7613	0	33.3394	33.7563
-0.434386	11.7681	1.6822	41.9945	29.6844	34.6868	34.3217
0.358717	11.7681	1.6822	42.1759	32.157	35.5892	34.8321
1.15182	11.7681	1.6822	42.29	34.0475	36.2736	35.311
1.94492	11.7681	1.6822	42.3574	35.2579	36.853	35.7564
2.73803	11.7681	1.6822	42.3959	36.0814	37.3179	36.1762
3.53113	11.7681	1.6822	42.4148	36.7363	37.7542	36.5596
4.32423	11.7681	1.6822	42.4157	37.2666	38.1882	36.9306
5.11734	11.7681	1.6822	42.3936	37.741	38.591	37.2217
5.91044	11.7681	1.6822	42.3399	38.1694	38.9081	37.5586
6.70354	11.7681	1.6822	42.2669	38.5775	39.249	37.8384
7.49665	11.7681	1.6822	42.1448	38.9157	39.457	38.0932
8.28975	11.7681	1.6822	41.9072	39.2936	39.6372	38.3105
9.08286	11.7681	1.6822	41.4609	39.5357	39.7779	38.4931
9.87596	11.7681	1.6822	40.6133	39.6643	39.9072	38.6131
10.6691	11.7681	1.6822	38.7729	39.673	39.8889	38.6328
11.4622	11.7681	1.6822	35.8505	39.5524	39.892	38.5191
12.2553	11.7681	1.6822	30.8289	39.1305	39.8168	38.3396
13.0484	11.7681	1.6822	7.97025	37.8734	39.5918	38.0142
13.8415	11.7681	1.6822	-139.496	36.1161	39.1035	37.6025
14.6346	11.7681	1.6822	0	34.2052	37.944	36.8347
15.4277	11.7681	1.6822	0	31.4505	35.405	35.1349
16.2208	11.7681	1.6822	0	23.5254	27.5514	28.1462
17.0139	11.7681	1.6822	0	0	0	0
17.807	11.7681	1.6822	0	0	0	0
-5.17575	12.045	1.57949	40.0061	0	0	0
-4.38265	12.045	1.57949	40.4246	0	0	30.2032
-3.58954	12.045	1.57949	40.8155	0	0	31.4759
-2.79644	12.045	1.57949	41.1788	0	28.5781	32.3739
-2.00334	12.045	1.57949	41.5033	0	31.382	33.1128
-1.21023	12.045	1.57949	41.7779	0	33.4466	33.7443
-0.41713	12.045	1.57949	42.0066	29.8067	34.7781	34.3071
0.375974	12.045	1.57949	42.1839	32.2753	35.6627	34.8154
1.16908	12.045	1.57949	42.2952	34.1489	36.3361	35.2922
1.96218	12.045	1.57949	42.3609	35.3451	36.9088	35.7355
2.75528	12.045	1.57949	42.3984	36.1527	37.3703	36.153
3.54839	12.045	1.57949	42.4168	36.7983	37.8046	36.5337
4.34149	12.045	1.57949	42.4173	37.3236	38.2369	36.902
5.13459	12.045	1.57949	42.3947	37.7949	38.6391	37.1897
5.9277	12.045	1.57949	42.3404	38.2212	38.9507	37.5237
6.7208	12.045	1.57949	42.2673	38.6278	39.2896	37.8004
7.5139	12.045	1.57949	42.1446	38.9635	39.4908	38.052
8.30701	12.045	1.57949	41.9056	39.3361	39.6679	38.2659
9.10011	12.045	1.57949	41.4576	39.5746	39.8042	38.4452
9.89321	12.045	1.57949	40.6085	39.6987	39.9332	38.5622
10.6863	12.045	1.57949	38.7621	39.704	39.9087	38.5797
11.4794	12.045	1.57949	35.7569	39.5878	39.9165	38.4661
12.2725	12.045	1.57949	30.7363	39.1717	39.8424	38.2881
13.0656	12.045	1.57949	7.31482	37.9252	39.6201	37.9653
13.8587	12.045	1.57949	-143.646	36.1713	39.1389	37.5557
14.6518	12.045	1.57949	0	34.2611	37.9903	36.7903
15.4449	12.045	1.57949	0	31.5059	35.4571	35.0924
16.238	12.045	1.57949	0	23.5803	27.6061	28.1052
17.0311	12.045	1.57949	0	0	0	0
17.8242	12.045	1.57949	0	0	0	0
-5.16056	12.3285	1.49703	40.0261	0	0	0
-4.36745	12.3285	1.49703	40.4435	0	0	30.198
-3.57435	12.3285	1.49703	40.8331	0	0	31.4674
-2.78125	12.3285	1.49703	41.1944	0	28.6816	32.3584
-1.98814	12.3285	1.49703	41.5159	0	31.4818	33.0924
-1.19504	12.3285	1.49703	41.7868	0	33.5345	33.7208
-0.401935	12.3285	1.49703	42.0119	29.9081	34.8523	34.2814
0.391168	12.3285	1.49703	42.1859	32.3731	35.7219	34.7878
1.18427	12.3285	1.49703	42.2948	34.2317	36.3864	35.263
1.97738	12.3285	1.49703	42.3592	35.4157	36.9535	35.7045
2.77048	12.3285	1.49703	42.396	36.2102	37.4123	36.1201
3.56358	12.3285	1.49703	42.4138	36.8483	37.8448	36.4985
4.35669	12.3285	1.49703	42.4139	37.3695	38.2754	36.8645
5.14979	12.3285	1.49703	42.3907	37.8383	38.677	37.1495
5.94289	12.3285	1.49703	42.3358	38.2629	38.9838	37.4812
6.736	12.3285	1.49703	42.2625	38.668	39.3214	37.7553
7.5291	12.3285	1.49703	42.1393	39.0016	39.5171	38.0042
8.3222	12.3285	1.49703	41.8989	39.3696	39.6921	38.2156
9.11531	12.3285	1.49703	41.4491	39.6052	39.8249	38.3923
9.90841	12.3285	1.49703	40.5986	39.7257	39.953	38.5069
10.7015	12.3285	1.49703	38.7471	39.7286	39.9238	38.5226
11.4946	12.3285	1.49703	35.656	39.6164	39.9359	38.4091
12.2877	12.3285	1.49703	30.6361	39.2052	39.8625	38.2326
13.0808	12.3285	1.49703	6.63867	37.9684	39.6427	37.9118
13.8739	12.3285	1.49703	-147.899	36.2176	39.1674	37.5039
14.667	12.3285	1.49703	0	34.3078	38.0286	36.7404
15.4601	12.3285	1.49703	0	31.5523	35.5006	35.0442
16.2532	12.3285	1.49703	0	23.6263	27.6521	28.0584
17.0463	12.3285	1.49703	0	0	0	0
17.8394	12.3285	1.49703	0	0	0	0
-5.14629	12.6186	1.42432	40.0366	0	0	0
-4.35319	12.6186	1.42432	40.4528	0	0	30.1742
-3.56009	12.6186	1.42432	40.8413	0	0	31.4409
-2.76698	12.6186	1.42432	41.2009	0	28.7692	32.326
-1.97388	12.6186	1.42432	41.5198	0	31.5661	33.0558
-1.18078	12.6186	1.42432	41.7875	0	33.6072	33.6816
-0.387672	12.6186	1.42432	42.0098	29.9938	34.9126	34.2402
0.405432	12.6186	1.42432	42.181	32.4554	35.769	34.7451
1.19854	12.6186	1.42432	42.288	34.2998	36.4258	35.2187
1.99164	12.6186	1.42432	42.3512	35.4727	36.988	35.6587
2.78474	12.6186	1.42432	42.3874	36.256	37.4444	36.0726
3.57785	12.6186	1.42432	42.4048	36.8875	37.8752	36.4492
4.37095	12.6186	1.42432	42.4044	37.4053	38.3042	36.8133
5.16405	12.6186	1.42432	42.3808	37.8719	38.7052	37.096
5.95716	12.6186	1.42432	42.3252	38.2948	39.0078	37.4258
6.75026	12.6186	1.42432	42.2517	38.6985	39.3445	37.6978
7.54336	12.6186	1.42432	42.1278	39.0304	39.5355	37.9445
8.33647	12.6186	1.42432	41.886	39.3941	39.7091	38.1537
9.12957	12.6186	1.42432	41.4343	39.6274	39.8392	38.3284
9.92267	12.6186	1.42432	40.5824	39.7451	39.9657	38.4411
10.7158	12.6186	1.42432	38.7266	39.7462	39.9329	38.4555
11.5089	12.6186	1.42432	35.5467	39.638	39.9492	38.3422
12.302	12.6186	1.42432	30.5274	39.2314	39.8763	38.1668
13.0951	12.6186	1.42432	5.94038	38.0041	39.6588	37.8477
13.8882	12.6186	1.42432	-152.259	36.256	39.1888	37.4412
14.6813	12.6186	1.42432	0	34.3466	38.0594	36.6794
15.4744	12.6186	1.42432	0	31.5908	35.5367	34.9845
16.2675	12.6186	1.42432	0	23.6645	27.6905	28
17.0606	12.6186	1.42432	0	0	0	0
17.8537	12.6186	1.42432	0	0	0	0
-5.13452	12.9155	1.37155	40.0448	0	0	0
-4.34141	12.9155	1.37155	40.46	0	0	30.1519
-3.54831	12.9155	1.37155	40.8474	0	0	31.4165
-2.75521	12.9155	1.37155	41.2055	0	28.8427	32.2971
-1.9621	12.9155	1.37155	41.5221	0	31.6368	33.0235
-1.169	12.9155	1.37155	41.787	0	33.6683	33.6472
-0.375898	12.9155	1.37155	42.0069	30.0658	34.9637	34.2042
0.417206	12.9155	1.37155	42.1756	32.5245	35.8094	34.7077
1.21031	12.9155	1.37155	42.2809	34.3572	36.4603	35.1801
2.00341	12.9155	1.37155	42.3431	35.521	37.0185	35.6188
2.79652	12.9155	1.37155	42.3786	36.2955	37.4731	36.0313
3.58962	12.9155	1.37155	42.3956	36.9219	37.9026	36.4062
4.38272	12.9155	1.37155	42.3948	37.4369	38.33	36.7688
5.17583	12.9155	1.37155	42.3706	37.9018	38.7303	37.0495
5.96893	12.9155	1.37155	42.3144	38.3235	39.0296	37.3777
6.76203	12.9155	1.37155	42.2406	38.7258	39.3654	37.6477
7.55514	12.9155	1.37155	42.116	39.0564	39.5526	37.8927
8.34824	12.9155	1.37155	41.8727	39.4165	39.7249	38.0999
9.14134	12.9155	1.37155	41.4191	39.6476	39.8529	38.2728
9.93445	12.9155	1.37155	40.5657	39.7629	39.9775	38.3839
10.7276	12.9155	1.37155	38.7064	39.7625	39.9423	38.3972
11.5207	12.9155	1.37155	35.4349	39.6574	39.962	38.2842
12.3138	12.9155	1.37155	30.4159	39.2547	39.8894	38.1097
13.1069	12.9155	1.37155	5.2254	38.0352	39.6739	37.7921
13.9	12.9155	1.37155	-156.721	36.2894	39.2081	37.3868
14.6931	12.9155	1.37155	0	34.3804	38.0865	36.6264
15.4862	12.9155	1.37155	0	31.6243	35.5682	34.9328
16.2793	12.9155	1.37155	0	23.6977	27.724	27.9494
17.0724	12.9155	1.37155	0	0	0	0
17.8655	12.9155	1.37155	0	0	0	0
-5.12336	13.2194	1.32407	40.0468	0	0	0
-4.33026	13.2194	1.32407	40.4611	0	0	30.1178
-3.53715	13.2194	1.32407	40.8475	0	0	31.3806
-2.74405	13.2194	1.32407	41.2042	0	28.9061	32.2572
-1.95094	13.2194	1.32407	41.5186	0	31.6976	32.9808
-1.15784	13.2194	1.32407	41.7811	0	33.7199	33.6025
-0.364738	13.2194	1.32407	41.9991	30.1278	35.0059	34.1581
0.428365	13.2194	1.32407	42.1656	32.5838	35.842	34.6605
1.22147	13.2194	1.32407	42.2694	34.4052	36.4877	35.1317
2.01457	13.2194	1.32407	42.3306	35.5607	37.0423	35.5693
2.80768	13.2194	1.32407	42.3655	36.3273	37.4954	35.9806
3.60078	13.2194	1.32407	42.3821	36.9493	37.9236	36.3541
4.39388	13.2194	1.32407	42.3809	37.4619	38.3496	36.7153
5.18699	13.2194	1.32407	42.3561	37.9253	38.7492	36.9942
5.98009	13.2194	1.32407	42.2993	38.3458	39.0454	37.321
6.77319	13.2194	1.32407	42.2251	38.7468	39.3805	37.5895
7.5663	13.2194	1.32407	42.0997	39.0763	39.5644	37.8328
8.3594	13.2194	1.32407	41.8549	39.433	39.736	38.0385
9.1525	13.2194	1.32407	41.3993	39.6624	39.862	38.2099
9.94561	13.2194	1.32407	40.5444	39.7757	39.9846	38.3196
10.7387	13.2194	1.32407	38.6822	39.774	39.9476	38.332
11.5318	13.2194	1.32407	35.3165	39.6719	39.9705	38.2192
12.3249	13.2194	1.32407	30.2974	39.2728	39.8981	38.0456
13.118	13.2194	1.32407	4.48925	38.061	39.6843	37.7293
13.9111	13.2194	1.32407	-161.293	36.3173	39.2224	37.325
14.7042	13.2194	1.32407	0	34.4086	38.1083	36.5659
15.4973	13.2194	1.32407	0	31.6523	35.5945	34.8734
16.2904	13.2194	1.32407	0	23.7254	27.7522	27.8909
17.0835	13.2194	1.32407	0	0	0	0
17.8766	13.2194	1.32407	0	0	0	0
-5.11277	13.5305	1.28127	40.0436	0	0	0
-4.31967	13.5305	1.28127	40.4569	0	0	30.0739
-3.52657	13.5305	1.28127	40.8424	0	0	31.3351
-2.73346	13.5305	1.28127	41.1978	0	28.9608	32.2083
-1.94036	13.5305	1.28127	41.5103	0	31.7498	32.9294
-1.14726	13.5305	1.28127	41.7707	0	33.7631	33.5494
-0.354154	13.5305	1.28127	41.9869	30.1812	35.0406	34.1038
0.438949	13.5305	1.28127	42.1515	32.6345	35.868	34.6051
1.23205	13.5305	1.28127	42.2539	34.4451	36.5091	35.0754
2.02516	13.5305	1.28127	42.3143	35.593	37.0605	35.5119
2.81826	13.5305	1.28127	42.3488	36.3527	37.5122	35.9221
3.61136	13.5305	1.28127	42.3649	36.9707	37.9392	36.2944
4.40447	13.5305	1.28127	42.3632	37.4812	38.3638	36.6543
5.19757	13.5305	1.28127	42.3379	37.9433	38.7626	36.9318
5.99067	13.5305	1.28127	42.2804	38.3626	39.0561	37.2573
6.78378	13.5305	1.28127	42.2058	38.7625	39.3908	37.5244
7.57688	13.5305	1.28127	42.0796	39.091	39.5719	37.7663
8.36998	13.5305	1.28127	41.8332	39.4447	39.7429	37.9706
9.16309	13.5305	1.28127	41.3756	39.6724	39.8672	38.1407
9.95619	13.5305	1.28127	40.5191	39.784	39.9875	38.2493
10.7493	13.5305	1.28127	38.6545	39.7814	39.9494	38.261
11.5424	13.5305	1.28127	35.1921	39.682	39.9754	38.1484
12.3355	13.5305	1.28127	30.1724	39.2866	39.9028	37.9756
13.1286	13.5305	1.28127	3.73209	38.0821	39.6908	37.6604
13.9217	13.5305	1.28127	-165.976	36.3404	39.2324	37.257
14.7148	13.5305	1.28127	0	34.4319	38.1256	36.499
15.5079	13.5305	1.28127	0	31.6754	35.6161	34.8076
16.301	13.5305	1.28127	0	23.7484	27.7756	27.826
17.0941	13.5305	1.28127	0	0	0	0
17.8872	13.5305	1.28127	0	0	0	0
-5.10343	13.8489	1.24732	40.0388	0	0	0
-4.31033	13.8489	1.24732	40.4513	0	0	30.0301
-3.51723	13.8489	1.24732	40.8359	0	0	31.2901
-2.72412	13.8489	1.24732	41.1901	0	29.0083	32.1604
-1.93102	13.8489	1.24732	41.5009	0	31.7951	32.8794
-1.13791	13.8489	1.24732	41.7592	0	33.8004	33.498
-0.344812	13.8489	1.24732	41.9739	30.2275	35.0704	34.0513
0.448292	13.8489	1.24732	42.1366	32.6784	35.8905	34.5516
1.2414	13.8489	1.24732	42.2377	34.4796	36.5278	35.021
2.0345	13.8489	1.24732	42.2973	35.6207	37.0764	35.4567
2.8276	13.8489	1.24732	42.3312	36.3747	37.527	35.8659
3.62071	13.8489	1.24732	42.347	36.9893	37.9529	36.2371
4.41381	13.8489	1.24732	42.3449	37.498	38.3762	36.5959
5.20691	13.8489	1.24732	42.319	37.959	38.7743	36.872
6.00002	13.8489	1.24732	42.2607	38.3775	39.0654	37.1963
6.79312	13.8489	1.24732	42.1856	38.7761	39.3996	37.4621
7.58622	13.8489	1.24732	42.0586	39.1038	39.5782	37.7028
8.37933	13.8489	1.24732	41.8105	39.4548	39.7486	37.9058
9.17243	13.8489	1.24732	41.3507	39.681	39.8713	38.0748
9.96553	13.8489	1.24732	40.4928	39.7911	39.9894	38.1823
10.7586	13.8489	1.24732	38.6262	39.7876	39.9507	38.1933
11.5517	13.8489	1.24732	35.0648	39.6905	39.9793	38.0809
12.3448	13.8489	1.24732	30.0438	39.2982	39.9066	37.9088
13.1379	13.8489	1.24732	2.95649	38.1003	39.6961	37.5946
13.9311	13.8489	1.24732	-170.77	36.3604	39.2407	37.1921
14.7242	13.8489	1.24732	0	34.4521	38.1405	36.4352
15.5173	13.8489	1.24732	0	31.6954	35.6348	34.7447
16.3104	13.8489	1.24732	0	23.7682	27.796	27.764
17.1035	13.8489	1.24732	0	0	0	0
17.8966	13.8489	1.24732	0	0	0	0
-5.09453	14.1747	1.21646	40.0303	0	0	0
-4.30143	14.1747	1.21646	40.4419	0	0	29.9795
-3.50832	14.1747	1.21646	40.8257	0	0	31.2383
-2.71522	14.1747	1.21646	41.1787	0	29.0495	32.1061
-1.92212	14.1747	1.21646	41.4878	0	31.8342	32.8233
-1.12901	14.1747	1.21646	41.7444	0	33.8319	33.4406
-0.33591	14.1747	1.21646	41.9577	30.2676	35.0948	33.9929
0.457194	14.1747	1.21646	42.1187	32.7162	35.9082	34.4924
1.2503	14.1747	1.21646	42.2186	34.5084	36.5421	34.961
2.0434	14.1747	1.21646	42.2774	35.6431	37.0881	35.3958
2.8365	14.1747	1.21646	42.3108	36.392	37.5378	35.8042
3.62961	14.1747	1.21646	42.3262	37.0036	37.9627	36.1743
4.42271	14.1747	1.21646	42.3236	37.5107	38.3847	36.5321
5.21581	14.1747	1.21646	42.2971	37.9707	38.7821	36.807
6.00892	14.1747	1.21646	42.2381	38.3883	39.0711	37.1303
6.80202	14.1747	1.21646	42.1625	38.7859	39.4048	37.3949
7.59512	14.1747	1.21646	42.0346	39.1129	39.5812	37.6344
8.38823	14.1747	1.21646	41.7848	39.4613	39.7512	37.8363
9.18133	14.1747	1.21646	41.3228	39.6861	39.8725	38.0042
9.97443	14.1747	1.21646	40.4632	39.7949	39.9883	38.1108
10.7675	14.1747	1.21646	38.595	39.7906	39.9493	38.1212
11.5606	14.1747	1.21646	34.9326	39.6956	39.9803	38.0091
12.3537	14.1747	1.21646	29.9095	39.3065	39.9074	37.8376
13.1468	14.1747	1.21646	2.15989	38.1149	39.6984	37.5244
13.94	14.1747	1.21646	-175.679	36.3766	39.2457	37.1226
14.7331	14.1747	1.21646	0	34.4685	38.1518	36.3667
15.5262	14.1747	1.21646	0	31.7116	35.6499	34.6771
16.3193	14.1747	1.21646	0	23.7844	27.8126	27.6972
17.1124	14.1747	1.21646	0	0	0	0
17.9055	14.1747	1.21646	0	0	0	0
-5.08668	14.5083	1.1926	40.0215	0	0	0
-4.29358	14.5083	1.1926	40.4324	0	0	29.9315
-3.50048	14.5083	1.1926	40.8154	0	0	31.1893
-2.70737	14.5083	1.1926	41.1673	0	29.0859	32.055
-1.91427	14.5083	1.1926	41.4747	0	31.8687	32.7705
-1.12117	14.5083	1.1926	41.7295	0	33.8596	33.3868
-0.328064	14.5083	1.1926	41.9415	30.3031	35.1164	33.9381
0.465039	14.5083	1.1926	42.1007	32.7496	35.924	34.4369
1.25814	14.5083	1.1926	42.1995	34.5338	36.5551	34.9048
2.05125	14.5083	1.1926	42.2576	35.6631	37.099	35.3388
2.84435	14.5083	1.1926	42.2905	36.4075	37.5479	35.7464
3.63745	14.5083	1.1926	42.3054	37.0166	37.9718	36.1156
4.43056	14.5083	1.1926	42.3024	37.5224	38.3927	36.4724
5.22366	14.5083	1.1926	42.2753	37.9816	38.7894	36.7461
6.01676	14.5083	1.1926	42.2154	38.3984	39.0765	37.0683
6.80987	14.5083	1.1926	42.1394	38.795	39.4097	37.3319
7.60297	14.5083	1.1926	42.0105	39.1214	39.5841	37.5703
8.39607	14.5083	1.1926	41.7588	39.4675	39.7536	37.771
9.18918	14.5083	1.1926	41.2945	39.6909	39.8734	37.9379
9.98228	14.5083	1.1926	40.4332	39.7984	39.987	38.0436
10.7754	14.5083	1.1926	38.5638	39.7933	39.9481	38.0534
11.5685	14.5083	1.1926	34.7987	39.7	39.9812	37.9415
12.3616	14.5083	1.1926	29.7722	39.3136	39.9079	37.7707
13.1547	14.5083	1.1926	1.34476	38.1277	39.7002	37.4584
13.9478	14.5083	1.1926	-180.704	36.3909	39.2499	37.0573
14.7409	14.5083	1.1926	0	34.4828	38.1617	36.3024
15.534	14.5083	1.1926	0	31.7258	35.6632	34.6136
16.3271	14.5083	1.1926	0	23.7986	27.8273	27.6345
17.1202	14.5083	1.1926	0	0	0	0
17.9133	14.5083	1.1926	0	0	0	0
-5.07857	14.8497	1.16685	40.0067	0	0	0
-4.28546	14.8497	1.16685	40.4168	0	0	29.8699
-3.49236	14.8497	1.16685	40.7991	0	0	31.1269
-2.69926	14.8497	1.16685	41.1499	0	29.1167	31.9906
-1.90615	14.8497	1.16685	41.4559	0	31.8976	32.7046
-1.11305	14.8497	1.16685	41.7091	0	33.8814	33.3198
-0.319946	14.8497	1.16685	41.9199	30.333	35.1319	33.8704
0.473157	14.8497	1.16685	42.0777	32.7773	35.9339	34.3684
1.26626	14.8497	1.16685	42.1753	34.5532	36.5622	34.8356
2.05936	14.8497	1.16685	42.2327	35.6769	37.104	35.269
2.85247	14.8497	1.16685	42.2652	36.4171	37.5521	35.6758
3.64557	14.8497	1.16685	42.2798	37.0238	37.9752	36.0441
4.43867	14.8497	1.16685	42.2763	37.5282	38.3948	36.4001
5.23178	14.8497	1.16685	42.2485	37.9866	38.7908	36.6727
6.02488	14.8497	1.16685	42.1879	38.4028	39.0762	36.9941
6.81798	14.8497	1.16685	42.1112	38.7983	39.409	37.2567
7.61109	14.8497	1.16685	41.9813	39.1242	39.5817	37.4941
8.40419	14.8497	1.16685	41.7278	39.4681	39.7509	37.6938
9.1973	14.8497	1.16685	41.2609	39.6902	39.8693	37.8599
9.9904	14.8497	1.16685	40.398	39.7966	39.9806	37.9648
10.7835	14.8497	1.16685	38.5275	39.791	39.9422	37.9742
11.5766	14.8497	1.16685	34.6583	39.6994	39.9773	37.8625
12.3697	14.8497	1.16685	29.627	39.3161	39.9035	37.6923
13.1628	14.8497	1.16685	0.505721	38.136	39.6972	37.3808
13.9559	14.8497	1.16685	-185.852	36.4007	39.2493	36.9804
14.749	14.8497	1.16685	0	34.4928	38.1671	36.2262
15.5421	14.8497	1.16685	0	31.7357	35.6721	34.5383
16.3352	14.8497	1.16685	0	23.8083	27.8376	27.5599
17.1283	14.8497	1.16685	0	0	0	0
17.9214	14.8497	1.16685	0	0	0	0
-5.07199	15.1991	1.15099	39.9957	0	0	0
-4.27889	15.1991	1.15099	40.4051	0	0	29.8208
-3.48579	15.1991	1.15099	40.7866	0	0	31.0771
-2.69268	15.1991	1.15099	41.1364	0	29.1452	31.9391
-1.89958	15.1991	1.15099	41.4408	0	31.9245	32.6519
-1.10648	15.1991	1.15099	41.6923	0	33.9025	33.2663
-0.313373	15.1991	1.15099	41.9019	30.3608	35.1481	33.8161
0.47973	15.1991	1.15099	42.0579	32.8033	35.9456	34.3135
1.27283	15.1991	1.15099	42.1544	34.5725	36.5717	34.7801
2.06594	15.1991	1.15099	42.2111	35.6916	37.1118	35.2127
2.85904	15.1991	1.15099	42.2431	36.4285	37.5593	35.6188
3.65214	15.1991	1.15099	42.2572	37.0332	37.9816	35.9863
4.44525	15.1991	1.15099	42.2533	37.5366	38.4003	36.3414
5.23835	15.1991	1.15099	42.2249	37.9944	38.7955	36.6129
6.03145	15.1991	1.15099	42.1634	38.41	39.0793	36.9333
6.82456	15.1991	1.15099	42.0861	38.8047	39.4115	37.1949
7.61766	15.1991	1.15099	41.9551	39.13	39.5826	37.4312
8.41076	15.1991	1.15099	41.6997	39.4719	39.7512	37.6299
9.20387	15.1991	1.15099	41.2302	39.6927	39.8683	37.795
9.99697	15.1991	1.15099	40.3654	39.7979	39.9775	37.899
10.7901	15.1991	1.15099	38.4941	39.7914	39.9396	37.9079
11.5832	15.1991	1.15099	34.5199	39.7011	39.9762	37.7964
12.3763	15.1991	1.15099	29.4818	39.3202	39.902	37.6268
13.1694	15.1991	1.15099	-0.349605	38.1448	39.6967	37.3162
13.9625	15.1991	1.15099	-191.117	36.4107	39.2508	36.9165
14.7556	15.1991	1.15099	0	34.5029	38.1735	36.1632
15.5487	15.1991	1.15099	0	31.7457	35.6814	34.4761
16.3418	15.1991	1.15099	0	23.8183	27.848	27.4984
17.1349	15.1991	1.15099	0	0	0	0
17.928	15.1991	1.15099	0	0	0	0
-5.06456	15.5568	1.12929	39.976	0	0	0
-4.27146	15.5568	1.12929	40.3847	0	0	29.7511
-3.47835	15.5568	1.12929	40.7655	0	0	31.0066
-2.68525	15.5568	1.12929	41.1143	0	29.1677	31.867
-1.89215	15.5568	1.12929	41.4173	0	31.9452	32.5786
-1.09904	15.5568	1.12929	41.6673	0	33.9166	33.1921
-0.305938	15.5568	1.12929	41.876	30.3824	35.1567	33.7412
0.487165	15.5568	1.12929	42.0307	32.8229	35.9493	34.238
1.28027	15.5568	1.12929	42.1262	34.5845	36.5732	34.704
2.07337	15.5568	1.12929	42.1822	35.6986	37.1114	35.136
2.86648	15.5568	1.12929	42.2138	36.432	37.5584	35.5414
3.65958	15.5568	1.12929	42.2275	37.0347	37.9799	35.9082
4.45268	15.5568	1.12929	42.2231	37.5369	38.3974	36.2625
5.24579	15.5568	1.12929	42.194	37.9941	38.7919	36.5332
6.03889	15.5568	1.12929	42.1317	38.4091	39.0742	36.8528
6.83199	15.5568	1.12929	42.0537	38.8028	39.406	37.1134
7.6251	15.5568	1.12929	41.9216	39.1278	39.5758	37.3489
8.4182	15.5568	1.12929	41.6641	39.4678	39.7441	37.5468
9.2113	15.5568	1.12929	41.192	39.6873	39.8599	37.7111
10.0044	15.5568	1.12929	40.3253	39.7917	39.9668	37.8145
10.7975	15.5568	1.12929	38.4533	39.7847	39.9298	37.823
11.5906	15.5568	1.12929	34.3738	39.6958	39.9681	37.7118
12.3837	15.5568	1.12929	29.3262	39.3178	39.8934	37.5427
13.1768	15.5568	1.12929	-1.23203	38.1478	39.6893	37.2328
13.9699	15.5568	1.12929	-196.514	36.4151	39.2454	36.8336
14.763	15.5568	1.12929	0	34.5074	38.1739	36.0812
15.5561	15.5568	1.12929	0	31.7502	35.6852	34.3947
16.3492	15.5568	1.12929	0	23.8228	27.853	27.4178
17.1423	15.5568	1.12929	0	0	0	0
17.9354	15.5568	1.12929	0	0	0	0
-5.05908	15.9228	1.11995	39.9639	0	0	0
-4.26597	15.9228	1.11995	40.372	0	0	29.7031
-3.47287	15.9228	1.11995	40.7521	0	0	30.958
-2.67976	15.9228	1.11995	41.0998	0	29.1906	31.8172
-1.88666	15.9228	1.11995	41.4013	0	31.9668	32.5278
-1.09356	15.9228	1.11995	41.6496	0	33.9333	33.1405
-0.300454	15.9228	1.11995	41.8571	30.4047	35.1693	33.6891
0.492649	15.9228	1.11995	42.01	32.8436	35.9584	34.1853
1.28575	15.9228	1.11995	42.1044	34.5996	36.5806	34.6507
2.07886	15.9228	1.11995	42.1597	35.71	37.1174	35.0821
2.87196	15.9228	1.11995	42.1908	36.4408	37.564	35.4869
3.66506	15.9228	1.11995	42.2041	37.042	37.9849	35.8528
4.45817	15.9228	1.11995	42.1992	37.5434	38.4015	36.2063
5.25127	15.9228	1.11995	42.1694	38.0002	38.7952	36.4758
6.04437	15.9228	1.11995	42.1062	38.4147	39.0762	36.7945
6.83748	15.9228	1.11995	42.0275	38.8076	39.4072	37.0541
7.63058	15.9228	1.11995	41.8942	39.1322	39.5755	37.2886
8.42368	15.9228	1.11995	41.6346	39.4703	39.7432	37.4854
9.21679	15.9228	1.11995	41.1597	39.6885	39.8577	37.6488
10.0099	15.9228	1.11995	40.2909	39.7916	39.9627	37.7513
10.803	15.9228	1.11995	38.4185	39.7839	39.9265	37.7593
11.5961	15.9228	1.11995	34.2341	39.6957	39.9659	37.6482
12.3892	15.9228	1.11995	29.1736	39.3198	39.8907	37.4797
13.1823	15.9228	1.11995	-2.12858	38.1538	39.6876	37.1707
13.9754	15.9228	1.11995	-202.03	36.422	39.2452	36.7722
14.7685	15.9228	1.11995	0	34.5145	38.1779	36.0207
15.5616	15.9228	1.11995	0	31.7571	35.6916	34.335
16.3547	15.9228	1.11995	0	23.8298	27.8603	27.3588
17.1478	15.9228	1.11995	0	0	0	0
17.9409	15.9228	1.11995	0	0	0	0
-5.05224	16.2975	1.10153	39.9403	0	0	0
-4.25914	16.2975	1.10153	40.3477	0	0	29.6269
-3.46603	16.2975	1.10153	40.7271	0	0	30.8812
-2.67293	16.2975	1.10153	41.0739	0	29.2063	31.7391
-1.87982	16.2975	1.10153	41.374	0	31.9809	32.4487
-1.08672	16.2975	1.10153	41.621	0	33.9412	33.0606
-0.293618	16.2975	1.10153	41.8276	30.4197	35.1722	33.6085
0.499486	16.2975	1.10153	41.9792	32.8567	35.9571	34.1042
1.29259	16.2975	1.10153	42.0726	34.6056	36.5775	34.5691
2.08569	16.2975	1.10153	42.1274	35.7115	37.1127	35
2.8788	16.2975	1.10153	42.158	36.4393	37.5588	35.4041
3.6719	16.2975	1.10153	42.1709	37.0388	37.979	35.7694
4.465	16.2975	1.10153	42.1656	37.5392	38.3945	36.1222
5.25811	16.2975	1.10153	42.1351	37.9955	38.7875	36.3909
6.05121	16.2975	1.10153	42.0711	38.4095	39.0672	36.7089
6.84431	16.2975	1.10153	41.9915	38.8016	39.3978	36.9677
7.63742	16.2975	1.10153	41.857	39.1258	39.565	37.2014
8.43052	16.2975	1.10153	41.5952	39.4622	39.7324	37.3974
9.22362	16.2975	1.10153	41.1173	39.6792	39.8456	37.5602
10.0167	16.2975	1.10153	40.2464	39.7816	39.9485	37.6621
10.8098	16.2975	1.10153	38.3735	39.7735	39.9136	37.6697
11.6029	16.2975	1.10153	34.0858	39.6865	39.9542	37.5589
12.396	16.2975	1.10153	29.008	39.3133	39.8785	37.3909
13.1891	16.2975	1.10153	-3.05567	38.1523	39.6764	37.0826
13.9822	16.2975	1.10153	-207.686	36.4218	39.2359	36.6846
14.7753	16.2975	1.10153	0	34.5144	38.174	35.9338
15.5685	16.2975	1.10153	0	31.757	35.6909	34.2488
16.3616	16.2975	1.10153	0	23.8297	27.8607	27.2733
17.1547	16.2975	1.10153	0	0	0	0
17.9478	16.2975	1.10153	0	0	0	0
-5.0472	16.681	1.0944	39.9248	0	0	0
-4.25409	16.681	1.0944	40.3315	0	0	29.5731
-3.46099	16.681	1.0944	40.7102	0	0	30.8269
-2.66789	16.681	1.0944	41.056	0	29.2236	31.6838
-1.87478	16.681	1.0944	41.3546	0	31.997	32.3925
-1.08168	16.681	1.0944	41.6	0	33.9527	33.0039
-0.288575	16.681	1.0944	41.8054	30.4364	35.18	33.5512
0.504528	16.681	1.0944	41.9554	32.872	35.9619	34.0463
1.29763	16.681	1.0944	42.0477	34.6158	36.5809	34.5107
2.09073	16.681	1.0944	42.1017	35.7183	37.1149	34.9411
2.88384	16.681	1.0944	42.1319	36.444	37.5607	35.3446
3.67694	16.681	1.0944	42.1444	37.0421	37.9803	35.709
4.47005	16.681	1.0944	42.1386	37.5418	38.395	36.061
5.26315	16.681	1.0944	42.1074	37.9978	38.7873	36.3287
6.05625	16.681	1.0944	42.0425	38.4113	39.0658	36.6458
6.84936	16.681	1.0944	41.9621	38.8027	39.3956	36.9037
7.64246	16.681	1.0944	41.8263	39.1265	39.5615	37.1363
8.43556	16.681	1.0944	41.5622	39.4612	39.7282	37.3314
9.22867	16.681	1.0944	41.0812	39.677	39.8402	37.4932
10.0218	16.681	1.0944	40.2081	39.7783	39.9413	37.5944
10.8149	16.681	1.0944	38.3348	39.7694	39.9073	37.6015
11.608	16.681	1.0944	33.9464	39.683	39.9489	37.4908
12.4011	16.681	1.0944	28.8456	39.3118	39.8726	37.3234
13.1942	16.681	1.0944	-3.99748	38.1544	39.6714	37.0159
13.9873	16.681	1.0944	-213.468	36.4248	39.2321	36.6186
14.7804	16.681	1.0944	0	34.5175	38.1743	35.8687
15.5735	16.681	1.0944	0	31.76	35.6935	34.1845
16.3666	16.681	1.0944	0	23.8327	27.8641	27.2097
17.1597	16.681	1.0944	0	0	0	0
17.9528	16.681	1.0944	0	0	0	0
-5.04186	17.0735	1.085	39.9045	0	0	0
-4.24875	17.0735	1.085	40.3106	0	0	29.5085
-3.45565	17.0735	1.085	40.6886	0	0	30.7618
-2.66255	17.0735	1.085	41.0334	0	29.2369	31.6176
-1.86944	17.0735	1.085	41.3306	0	32.0089	32.3256
-1.07634	17.0735	1.085	41.5744	0	33.9598	32.9363
-0.283237	17.0735	1.085	41.7788	30.4492	35.1833	33.4831
0.509866	17.0735	1.085	41.9273	32.8832	35.9621	33.9777
1.30297	17.0735	1.085	42.0186	34.6215	36.5797	34.4416
2.09607	17.0735	1.085	42.072	35.7205	37.1124	34.8714
2.88918	17.0735	1.085	42.1017	36.4439	37.5579	35.2743
3.68228	17.0735	1.085	42.1138	37.0408	37.9769	35.6381
4.47538	17.0735	1.085	42.1075	37.5398	38.3908	35.9893
5.26849	17.0735	1.085	42.0756	37.9954	38.7823	36.2561
6.06159	17.0735	1.085	42.0098	38.4086	39.0597	36.5724
6.85469	17.0735	1.085	41.9285	38.7992	39.3889	36.8293
7.6478	17.0735	1.085	41.7913	39.1227	39.5537	37.0611
8.4409	17.0735	1.085	41.5249	39.4558	39.7198	37.2553
9.234	17.0735	1.085	41.0406	39.6703	39.8305	37.4164
10.0271	17.0735	1.085	40.1651	39.7706	39.9298	37.5168
10.8202	17.0735	1.085	38.2916	39.7611	39.8971	37.5235
11.6133	17.0735	1.085	33.8063	39.6754	39.9394	37.413
12.4064	17.0735	1.085	28.6755	39.3064	39.8626	37.2462
13.1995	17.0735	1.085	-4.96525	38.1529	39.6623	36.9394
13.9926	17.0735	1.085	-219.39	36.4242	39.2244	36.5427
14.7857	17.0735	1.085	0	34.517	38.1709	35.7936
15.5788	17.0735	1.085	0	31.7595	35.6925	34.1101
16.3719	17.0735	1.085	0	23.8323	27.864	27.136
17.165	17.0735	1.085	0	0	0	0
17.9581	17.0735	1.085	0	0	0	0
-5.03673	17.4753	1.07661	39.8828	0	0	0
-4.24363	17.4753	1.07661	40.2883	0	0	29.4416
-3.45052	17.4753	1.07661	40.6656	0	0	30.6945
-2.65742	17.4753	1.07661	41.0094	0	29.2478	31.5494
-1.86432	17.4753	1.07661	41.3052	0	32.0186	32.2566
-1.07121	17.4753	1.07661	41.5475	0	33.9648	32.8667
-0.278109	17.4753	1.07661	41.7508	30.4595	35.1847	33.413
0.514994	17.4753	1.07661	41.8978	32.8921	35.9605	33.9071
1.3081	17.4753	1.07661	41.9881	34.6251	36.5768	34.3706
2.1012	17.4753	1.07661	42.0409	35.7207	37.1084	34.7998
2.8943	17.4753	1.07661	42.0702	36.4422	37.5536	35.2022
3.68741	17.4753	1.07661	42.0819	37.0378	37.9721	35.5652
4.48051	17.4753	1.07661	42.075	37.5362	38.3851	35.9157
5.27361	17.4753	1.07661	42.0425	37.9914	38.7759	36.1816
6.06672	17.4753	1.07661	41.9757	38.4042	39.0522	36.4971
6.85982	17.4753	1.07661	41.8935	38.7941	39.3806	36.7531
7.65293	17.4753	1.07661	41.755	39.1173	39.5445	36.9841
8.44603	17.4753	1.07661	41.4861	39.4488	39.7099	37.1773
9.23913	17.4753	1.07661	40.9983	39.6621	39.8194	37.3376
10.0322	17.4753	1.07661	40.1203	39.7616	39.917	37.4373
10.8253	17.4753	1.07661	38.2466	39.7514	39.8855	37.4436
11.6184	17.4753	1.07661	33.6699	39.6663	39.9286	37.3334
12.4115	17.4753	1.07661	28.5005	39.2994	39.8513	37.1671
13.2046	17.4753	1.07661	-5.95671	38.1496	39.6517	36.8611
13.9978	17.4753	1.07661	-225.452	36.4219	39.2151	36.465
14.7909	17.4753	1.07661	0	34.5148	38.1659	35.7166
15.584	17.4753	1.07661	0	31.7573	35.6899	34.0339
16.3771	17.4753	1.07661	0	23.8301	27.8622	27.0604
17.1702	17.4753	1.07661	0	0	0	0
17.9633	17.4753	1.07661	0	0	0	0
-5.0318	17.8865	1.06917	39.8597	0	0	0
-4.2387	17.8865	1.06917	40.2646	0	0	29.3726
-3.4456	17.8865	1.06917	40.6413	0	0	30.6251
-2.65249	17.8865	1.06917	40.9841	0	29.2565	31.4791
-1.85939	17.8865	1.06917	41.2784	0	32.0261	32.1856
-1.06629	17.8865	1.06917	41.5192	0	33.9678	32.7952
-0.273184	17.8865	1.06917	41.7215	30.4677	35.1842	33.341
0.519919	17.8865	1.06917	41.8671	32.8988	35.9573	33.8346
1.31302	17.8865	1.06917	41.9564	34.6268	36.5724	34.2976
2.10613	17.8865	1.06917	42.0085	35.7192	37.1029	34.7263
2.89923	17.8865	1.06917	42.0374	36.4388	37.5479	35.1281
3.69233	17.8865	1.06917	42.0487	37.0332	37.9658	35.4905
4.48544	17.8865	1.06917	42.0414	37.531	38.3779	35.8403
5.27854	17.8865	1.06917	42.0081	37.986	38.768	36.1053
6.07164	17.8865	1.06917	41.9404	38.3984	39.0433	36.42
6.86475	17.8865	1.06917	41.8573	38.7875	39.3711	36.6752
7.65785	17.8865	1.06917	41.7172	39.1105	39.5339	36.9052
8.45095	17.8865	1.06917	41.4458	39.4405	39.6988	37.0976
9.24406	17.8865	1.06917	40.9544	39.6526	39.807	37.2571
10.0372	17.8865	1.06917	40.0737	39.7511	39.9029	37.3562
10.8303	17.8865	1.06917	38.1998	39.7403	39.8728	37.3621
11.6234	17.8865	1.06917	33.5387	39.6558	39.9165	37.252
12.4165	17.8865	1.06917	28.3206	39.2909	39.8386	37.0862
13.2096	17.8865	1.06917	-6.97231	38.1448	39.6398	36.781
14.0027	17.8865	1.06917	-231.657	36.4179	39.2044	36.3855
14.7958	17.8865	1.06917	0	34.5109	38.1593	35.6379
15.5889	17.8865	1.06917	0	31.7534	35.6856	33.9559
16.382	17.8865	1.06917	0	23.8262	27.8587	26.9831
17.1751	17.8865	1.06917	0	0	0	0
17.9682	17.8865	1.06917	0	0	0	0
-5.0275	18.3074	1.06544	39.8389	0	0	0
-4.23439	18.3074	1.06544	40.2431	0	0	29.31
-3.44129	18.3074	1.06544	40.6191	0	0	30.5621
-2.64819	18.3074	1.06544	40.9609	0	29.2651	31.4154
-1.85508	18.3074	1.06544	41.2538	0	32.0336	32.1213
-1.06198	18.3074	1.06544	41.4929	0	33.9713	32.7303
-0.268876	18.3074	1.06544	41.6941	30.4759	35.1847	33.2757
0.524227	18.3074	1.06544	41.8381	32.9057	35.9555	33.7689
1.31733	18.3074	1.06544	41.9264	34.6293	36.5696	34.2314
2.11043	18.3074	1.06544	41.9779	35.7188	37.0991	34.6596
2.90354	18.3074	1.06544	42.0063	36.4368	37.5439	35.0608
3.69664	18.3074	1.06544	42.0172	37.0303	37.9613	35.4224
4.48974	18.3074	1.06544	42.0094	37.5275	38.3727	35.7714
5.28285	18.3074	1.06544	41.9754	37.9822	38.7621	36.0355
6.07595	18.3074	1.06544	41.9068	38.3943	39.0363	36.3494
6.86905	18.3074	1.06544	41.8226	38.7828	39.3633	36.6036
7.66216	18.3074	1.06544	41.6811	39.1054	39.5251	36.8327
8.45526	18.3074	1.06544	41.407	39.434	39.6892	37.0242
9.24836	18.3074	1.06544	40.9118	39.6448	39.7963	37.1828
10.0415	18.3074	1.06544	40.0283	39.7423	39.8906	37.2811
10.8346	18.3074	1.06544	38.1541	39.7308	39.8617	37.2865
11.6277	18.3074	1.06544	33.417	39.6465	39.9058	37.1767
12.4208	18.3074	1.06544	28.1386	39.2835	39.8274	37.0115
13.2139	18.3074	1.06544	-8.0097	38.1405	39.6294	36.707
14.007	18.3074	1.06544	-238.006	36.4143	39.195	36.3121
14.8001	18.3074	1.06544	0	34.5075	38.1536	35.5654
15.5932	18.3074	1.06544	0	31.7499	35.6818	33.8842
16.3863	18.3074	1.06544	0	23.8228	27.8556	26.9121
17.1794	18.3074	1.06544	0	0	0	0
17.9725	18.3074	1.06544	0	0	0	0
-5.02294	18.7382	1.05966	39.8134	0	0	0
-4.22983	18.7382	1.05966	40.2171	0	0	29.2373
-3.43673	18.7382	1.05966	40.5924	0	0	30.4891
-2.64363	18.7382	1.05966	40.9332	0	29.2698	31.3416
-1.85052	18.7382	1.05966	41.2247	0	32.0372	32.0468
-1.05742	18.7382	1.05966	41.4623	0	33.9707	32.6554
-0.264318	18.7382	1.05966	41.6624	30.4801	35.1809	33.2003
0.528786	18.7382	1.05966	41.8051	32.9085	35.9492	33.693
1.32189	18.7382	1.05966	41.8923	34.6275	36.5623	34.1551
2.11499	18.7382	1.05966	41.9432	35.7141	37.0909	34.5828
2.9081	18.7382	1.05966	41.9712	36.4304	37.5354	34.9835
3.7012	18.7382	1.05966	41.9817	37.0229	37.9524	35.3444
4.4943	18.7382	1.05966	41.9734	37.5195	38.363	35.6927
5.28741	18.7382	1.05966	41.9387	37.974	38.7517	35.9559
6.08051	18.7382	1.05966	41.8692	38.3858	39.0249	36.269
6.87361	18.7382	1.05966	41.784	38.7736	39.3512	36.5223
7.66672	18.7382	1.05966	41.6409	39.096	39.5121	36.7506
8.45982	18.7382	1.05966	41.364	39.4231	39.6756	36.9412
9.25292	18.7382	1.05966	40.8648	39.6328	39.7814	37.0992
10.046	18.7382	1.05966	39.9783	39.7294	39.8741	37.1968
10.8391	18.7382	1.05966	38.104	39.7172	39.8467	37.2018
11.6322	18.7382	1.05966	33.3	39.6334	39.8912	37.0922
12.4253	18.7382	1.05966	27.9488	39.2723	39.8123	36.9275
13.2184	18.7382	1.05966	-9.07503	38.1326	39.615	36.6238
14.0115	18.7382	1.05966	-244.509	36.4073	39.1817	36.2294
14.8046	18.7382	1.05966	0	34.5005	38.1442	35.4836
15.5978	18.7382	1.05966	0	31.743	35.6746	33.8031
16.3909	18.7382	1.05966	0	23.8159	27.849	26.8316
17.184	18.7382	1.05966	0	0	0	0
17.9771	18.7382	1.05966	0	0	0	0
-5.01895	19.1791	1.05735	39.7903	0	0	0
-4.22585	19.1791	1.05735	40.1934	0	0	29.1713
-3.43275	19.1791	1.05735	40.568	0	0	30.4227
-2.63964	19.1791	1.05735	40.9078	0	29.2748	31.2745
-1.84654	19.1791	1.05735	41.1978	0	32.0412	31.9792
-1.05344	19.1791	1.05735	41.4338	0	33.971	32.5873
-0.260332	19.1791	1.05735	41.6327	30.4847	35.1784	33.1317
0.532772	19.1791	1.05735	41.7739	32.9119	35.9447	33.624
1.32588	19.1791	1.05735	41.8601	34.6267	36.5569	34.0856
2.11898	19.1791	1.05735	41.9104	35.7108	37.0846	34.5129
2.91208	19.1791	1.05735	41.9379	36.4256	37.529	34.913
3.70519	19.1791	1.05735	41.9481	37.0173	37.9455	35.2732
4.49829	19.1791	1.05735	41.9393	37.5134	38.3554	35.6207
5.29139	19.1791	1.05735	41.9039	37.9677	38.7433	35.883
6.0845	19.1791	1.05735	41.8334	38.3792	39.0156	36.1952
6.8776	19.1791	1.05735	41.7472	38.7664	39.3411	36.4476
7.6707	19.1791	1.05735	41.6024	39.0885	39.501	36.675
8.46381	19.1791	1.05735	41.3227	39.4142	39.6637	36.8647
9.25691	19.1791	1.05735	40.8193	39.6226	39.7684	37.0218
10.05	19.1791	1.05735	39.9295	39.7182	39.8596	37.1187
10.8431	19.1791	1.05735	38.0551	39.7054	39.8335	37.1232
11.6362	19.1791	1.05735	33.1942	39.6218	39.8783	37.0138
12.4293	19.1791	1.05735	27.7568	39.2623	39.7989	36.8496
13.2224	19.1791	1.05735	-10.1631	38.1256	39.6022	36.5467
14.0155	19.1791	1.05735	-251.162	36.4009	39.1698	36.1531
14.8086	19.1791	1.05735	0	34.4942	38.1358	35.408
15.6017	19.1791	1.05735	0	31.7367	35.668	33.7283
16.3948	19.1791	1.05735	0	23.8097	27.8431	26.7576
17.1879	19.1791	1.05735	0	0	0	0
17.981	19.1791	1.05735	0	0	0	0
-5.01474	19.6304	1.05309	39.7627	0	0	0
-4.22163	19.6304	1.05309	40.1652	0	0	29.0953
-3.42853	19.6304	1.05309	40.5392	0	0	30.3464
-2.63543	19.6304	1.05309	40.878	0	29.2759	31.1975
-1.84232	19.6304	1.05309	41.1665	0	32.0413	31.9017
-1.04922	19.6304	1.05309	41.401	0	33.9671	32.5093
-0.256115	19.6304	1.05309	41.5989	30.4853	35.1716	33.0533
0.536989	19.6304	1.05309	41.7386	32.9113	35.9358	33.5452
1.33009	19.6304	1.05309	41.8239	34.6218	36.547	34.0064
2.1232	19.6304	1.05309	41.8735	35.7031	37.0739	34.4331
2.9163	19.6304	1.05309	41.9007	36.4165	37.5181	34.8327
3.7094	19.6304	1.05309	41.9105	37.0073	37.9342	35.1922
4.50251	19.6304	1.05309	41.9012	37.503	38.3434	35.5391
5.29561	19.6304	1.05309	41.8651	37.957	38.7306	35.8004
6.08871	19.6304	1.05309	41.7938	38.3682	39.002	36.1119
6.88182	19.6304	1.05309	41.7064	38.7548	39.3266	36.3635
7.67492	19.6304	1.05309	41.5599	39.0766	39.4857	36.5899
8.46802	19.6304	1.05309	41.2773	39.4009	39.6478	36.7788
9.26113	19.6304	1.05309	40.7695	39.6082	39.7513	36.9351
10.0542	19.6304	1.05309	39.8762	39.703	39.8411	37.0314
10.8473	19.6304	1.05309	38.0016	39.6895	39.8163	37.0355
11.6404	19.6304	1.05309	33.0936	39.6062	39.8615	36.9263
12.4335	19.6304	1.05309	27.5568	39.2486	39.7815	36.7627
13.2266	19.6304	1.05309	-11.2803	38.1149	39.5855	36.4606
14.0197	19.6304	1.05309	-257.975	36.391	39.154	36.0675
14.8129	19.6304	1.05309	0	34.4844	38.1237	35.3232
15.606	19.6304	1.05309	0	31.7269	35.658	33.6442
16.3991	19.6304	1.05309	0	23.8	27.8336	26.6742
17.1922	19.6304	1.05309	0	0	0	0
17.9853	19.6304	1.05309	0	0	0	0
-5.01141	20.0923	1.05461	39.7411	0	0	0
-4.21831	20.0923	1.05461	40.143	0	0	29.0345
-3.42521	20.0923	1.05461	40.5163	0	0	30.2853
-2.6321	20.0923	1.05461	40.8541	0	29.2799	31.1359
-1.839	20.0923	1.05461	41.141	0	32.0444	31.8395
-1.04589	20.0923	1.05461	41.3737	0	33.9671	32.4467
-0.252791	20.0923	1.05461	41.5703	30.489	35.1694	32.9903
0.540312	20.0923	1.05461	41.7084	32.9139	35.9318	33.4817
1.33342	20.0923	1.05461	41.7926	34.621	36.5424	33.9425
2.12652	20.0923	1.05461	41.8417	35.7002	37.0686	34.3687
2.91962	20.0923	1.05461	41.8684	36.4124	37.5126	34.7677
3.71273	20.0923	1.05461	41.8778	37.0025	37.9283	35.1264
4.50583	20.0923	1.05461	41.868	37.4978	38.3369	35.4725
5.29893	20.0923	1.05461	41.8312	37.9517	38.7234	35.7328
6.09204	20.0923	1.05461	41.759	38.3626	38.9938	36.0434
6.88514	20.0923	1.05461	41.6706	38.7487	39.3176	36.2939
7.67824	20.0923	1.05461	41.5223	39.0701	39.4756	36.5194
8.47135	20.0923	1.05461	41.2366	39.3931	39.6367	36.7072
9.26445	20.0923	1.05461	40.7242	39.599	39.7391	36.8627
10.0576	20.0923	1.05461	39.8271	39.6927	39.8276	36.9581
10.8507	20.0923	1.05461	37.9524	39.6784	39.804	36.9618
11.6438	20.0923	1.05461	33.0065	39.5951	39.8493	36.8527
12.4369	20.0923	1.05461	27.3575	39.2389	39.7689	36.6898
13.23	20.0923	1.05461	-12.4183	38.1076	39.5734	36.3884
14.0231	20.0923	1.05461	-264.942	36.3843	39.1427	35.996
14.8162	20.0923	1.05461	0	34.4778	38.1153	35.2527
15.6093	20.0923	1.05461	0	31.7203	35.6511	33.5745
16.4024	20.0923	1.05461	0	23.7935	27.8273	26.6052
17.1955	20.0923	1.05461	0	0	0	0
17.9886	20.0923	1.05461	0	0	0	0
-5.0075	20.5651	1.05167	39.7116	0	0	0
-4.2144	20.5651	1.05167	40.1129	0	0	28.9555
-3.42129	20.5651	1.05167	40.4855	0	0	30.206
-2.62819	20.5651	1.05167	40.8223	0	29.2777	31.056
-1.83509	20.5651	1.05167	41.1078	0	32.0413	31.7592
-1.04198	20.5651	1.05167	41.3389	0	33.9603	32.3659
-0.248879	20.5651	1.05167	41.5344	30.4864	35.1599	32.9091
0.544224	20.5651	1.05167	41.6711	32.9101	35.9205	33.4001
1.33733	20.5651	1.05167	41.7544	34.6133	36.5302	33.8604
2.13043	20.5651	1.05167	41.8029	35.69	37.0557	34.2862
2.92353	20.5651	1.05167	41.8292	36.4009	37.4995	34.6846
3.71664	20.5651	1.05167	41.8382	36.9902	37.9148	35.0427
4.50974	20.5651	1.05167	41.828	37.485	38.3227	35.3881
5.30284	20.5651	1.05167	41.7905	37.9387	38.7085	35.6475
6.09595	20.5651	1.05167	41.7174	38.3494	38.9781	35.9573
6.88905	20.5651	1.05167	41.6278	38.7349	39.301	36.207
7.68216	20.5651	1.05167	41.4777	39.0561	39.4582	36.4316
8.47526	20.5651	1.05167	41.1889	39.3777	39.6187	36.6186
9.26836	20.5651	1.05167	40.6716	39.5825	39.7198	36.7733
10.0615	20.5651	1.05167	39.7706	39.6753	39.8071	36.8681
10.8546	20.5651	1.05167	37.8957	39.6603	39.7849	36.8713
11.6477	20.5651	1.05167	32.9201	39.5773	39.8304	36.7625
12.4408	20.5651	1.05167	27.1472	39.2228	39.7494	36.6001
13.2339	20.5651	1.05167	-13.5895	38.0944	39.5546	36.2995
14.027	20.5651	1.05167	-272.081	36.3718	39.1247	35.9077
14.8201	20.5651	1.05167	0	34.4654	38.1009	35.1651
15.6132	20.5651	1.05167	0	31.7079	35.6385	33.4877
16.4063	20.5651	1.05167	0	23.7811	27.8152	26.5191
17.1994	20.5651	1.05167	0	0	0	0
17.9925	20.5651	1.05167	0	0	0	0
-5.00408	21.049	1.05183	39.6846	0	0	0
-4.21098	21.049	1.05183	40.0854	0	0	28.8835
-3.41788	21.049	1.05183	40.4573	0	0	30.1337
-2.62477	21.049	1.05183	40.793	0	29.2764	30.9832
-1.83167	21.049	1.05183	41.077	0	32.0391	31.6859
-1.03856	21.049	1.05183	41.3064	0	33.9549	32.2922
-0.245461	21.049	1.05183	41.5008	30.4848	35.1522	32.8349
0.547642	21.049	1.05183	41.636	32.9074	35.9111	33.3255
1.34075	21.049	1.05183	41.7183	34.607	36.5202	33.7854
2.13385	21.049	1.05183	41.7661	35.6816	37.0449	34.2107
2.92695	21.049	1.05183	41.7921	36.3914	37.4887	34.6086
3.72006	21.049	1.05183	41.8007	36.9799	37.9036	34.966
4.51316	21.049	1.05183	41.79	37.4744	38.3109	35.3106
5.30626	21.049	1.05183	41.7518	37.928	38.6959	35.5691
6.09937	21.049	1.05183	41.6779	38.3384	38.9646	35.878
6.89247	21.049	1.05183	41.5872	38.7233	39.2867	36.1268
7.68557	21.049	1.05183	41.4352	39.0442	39.443	36.3505
8.47868	21.049	1.05183	41.1431	39.3645	39.6026	36.5365
9.27178	21.049	1.05183	40.6207	39.5681	39.7027	36.6904
10.0649	21.049	1.05183	39.7155	39.6599	39.7886	36.7844
10.858	21.049	1.05183	37.8404	39.6442	39.7678	36.7872
11.6511	21.049	1.05183	32.8421	39.5613	39.8133	36.6786
12.4442	21.049	1.05183	26.9346	39.2083	39.7319	36.5167
13.2373	21.049	1.05183	-14.7856	38.0823	39.5376	36.217
14.0304	21.049	1.05183	-279.384	36.3603	39.1084	35.8258
14.8235	21.049	1.05183	0	34.454	38.0877	35.0841
15.6166	21.049	1.05183	0	31.6965	35.6269	33.4074
16.4097	21.049	1.05183	0	23.7698	27.8041	26.4395
17.2028	21.049	1.05183	0	0	0	0
17.9959	21.049	1.05183	0	0	0	0
-5.00112	21.5443	1.05488	39.6604	0	0	0
-4.20801	21.5443	1.05488	40.0605	0	0	28.8185
-3.41491	21.5443	1.05488	40.4317	0	0	30.0685
-2.6218	21.5443	1.05488	40.7664	0	29.2762	30.9174
-1.8287	21.5443	1.05488	41.0488	0	32.0382	31.6197
-1.0356	21.5443	1.05488	41.2764	0	33.9512	32.2256
-0.242494	21.5443	1.05488	41.4694	30.4843	35.1465	32.768
0.550609	21.5443	1.05488	41.6031	32.906	35.9039	33.2581
1.34371	21.5443	1.05488	41.6843	34.6026	36.5124	33.7176
2.13682	21.5443	1.05488	41.7315	35.6752	37.0366	34.1424
2.92992	21.5443	1.05488	41.7571	36.3841	37.4802	34.5396
3.72302	21.5443	1.05488	41.7654	36.972	37.8948	34.8963
4.51613	21.5443	1.05488	41.7543	37.4662	38.3015	35.2401
5.30923	21.5443	1.05488	41.7154	37.9196	38.6859	35.4975
6.10233	21.5443	1.05488	41.6406	38.3298	38.9536	35.8056
6.89544	21.5443	1.05488	41.5487	38.7142	39.2747	36.0533
7.68854	21.5443	1.05488	41.3948	39.0347	39.43	36.276
8.48164	21.5443	1.05488	41.0993	39.3537	39.5887	36.461
9.27475	21.5443	1.05488	40.5717	39.556	39.6876	36.614
10.0679	21.5443	1.05488	39.6618	39.6466	39.7725	36.7072
10.861	21.5443	1.05488	37.7866	39.6302	39.7527	36.7095
11.6541	21.5443	1.05488	32.7712	39.5472	39.7982	36.6011
12.4472	21.5443	1.05488	26.7196	39.1955	39.7164	36.4398
13.2403	21.5443	1.05488	-16.0071	38.0716	39.5226	36.1409
14.0334	21.5443	1.05488	0	36.3501	39.094	35.7504
14.8265	21.5443	1.05488	0	34.4439	38.076	35.0097
15.6196	21.5443	1.05488	0	31.6864	35.6166	33.3338
16.4127	21.5443	1.05488	0	23.7598	27.7943	26.3666
17.2058	21.5443	1.05488	0	0	0	0
17.9989	21.5443	1.05488	0	0	0	0
-4.99763	22.0513	1.05376	39.628	0	0	0
-4.20452	22.0513	1.05376	40.0276	0	0	28.7353
-3.41142	22.0513	1.05376	40.3982	0	0	29.9851
-2.61832	22.0513	1.05376	40.7319	0	29.2696	30.8335
-1.82521	22.0513	1.05376	41.0127	0	32.0306	31.5353
-1.03211	22.0513	1.05376	41.2387	0	33.9403	32.1408
-0.239005	22.0513	1.05376	41.4306	30.4772	35.1333	32.6828
0.554099	22.0513	1.05376	41.5629	32.8979	35.8891	33.1726
1.3472	22.0513	1.05376	41.6432	34.5909	36.4969	33.6316
2.14031	22.0513	1.05376	41.6899	35.6613	37.0204	34.0559
2.93341	22.0513	1.05376	41.7151	36.3691	37.464	34.4527
3.72651	22.0513	1.05376	41.723	36.9564	37.8782	34.8086
4.51962	22.0513	1.05376	41.7115	37.4501	38.2842	35.1517
5.31272	22.0513	1.05376	41.6719	37.9034	38.6679	35.4083
6.10582	22.0513	1.05376	41.5963	38.3133	38.9348	35.7155
6.89893	22.0513	1.05376	41.5033	38.6972	39.2551	35.9623
7.69203	22.0513	1.05376	41.3474	39.0175	39.4096	36.1842
8.48513	22.0513	1.05376	41.0485	39.3352	39.5676	36.3683
9.27824	22.0513	1.05376	40.5152	39.5363	39.6654	36.5206
10.0713	22.0513	1.05376	39.6005	39.6261	39.749	36.6131
10.8644	22.0513	1.05376	37.725	39.6091	39.7307	36.615
11.6575	22.0513	1.05376	32.697	39.5262	39.7762	36.5069
12.4507	22.0513	1.05376	26.4931	39.176	39.6939	36.3461
13.2438	22.0513	1.05376	-17.2639	38.0547	39.5006	36.048
14.0369	22.0513	1.05376	0	36.3338	39.0728	35.6581
14.83	22.0513	1.05376	0	34.4277	38.058	34.9182
15.6231	22.0513	1.05376	0	31.6703	35.6003	33.243
16.4162	22.0513	1.05376	0	23.7437	27.7784	26.2766
17.2093	22.0513	1.05376	0	0	0	0
18.0024	22.0513	1.05376	0	0	0	0
-4.99488	22.5702	1.05778	39.6021	0	0	0
-4.20178	22.5702	1.05778	40.0012	0	0	28.6677
-3.40867	22.5702	1.05778	40.371	0	0	29.9172
-2.61557	22.5702	1.05778	40.7036	0	29.2668	30.7652
-1.82246	22.5702	1.05778	40.9828	0	32.0271	31.4666
-1.02936	22.5702	1.05778	41.207	0	33.9342	32.0717
-0.236258	22.5702	1.05778	41.3975	30.4742	35.1253	32.6133
0.556846	22.5702	1.05778	41.5282	32.8939	35.8799	33.1026
1.34995	22.5702	1.05778	41.6075	34.5841	36.4872	33.5613
2.14305	22.5702	1.05778	41.6536	35.6528	37.0102	33.9851
2.93616	22.5702	1.05778	41.6784	36.3597	37.4536	34.3812
3.72926	22.5702	1.05778	41.686	36.9465	37.8675	34.7364
4.52236	22.5702	1.05778	41.674	37.44	38.273	35.0787
5.31547	22.5702	1.05778	41.6338	37.8931	38.656	35.3342
6.10857	22.5702	1.05778	41.5574	38.3028	38.922	35.6405
6.90167	22.5702	1.05778	41.4632	38.6862	39.2413	35.8863
7.69478	22.5702	1.05778	41.3054	39.0061	39.3947	36.1071
8.48788	22.5702	1.05778	41.0029	39.3225	39.5518	36.2902
9.28098	22.5702	1.05778	40.4638	39.5223	39.6485	36.4416
10.0741	22.5702	1.05778	39.5438	39.611	39.7311	36.5334
10.8672	22.5702	1.05778	37.668	39.5931	39.7138	36.5347
11.6603	22.5702	1.05778	32.6308	39.5101	39.7593	36.4268
12.4534	22.5702	1.05778	26.2672	39.1611	39.6766	36.2667
13.2465	22.5702	1.05778	-18.5443	38.0418	39.4838	35.9694
14.0396	22.5702	1.05778	0	36.3214	39.0565	35.5802
14.8327	22.5702	1.05778	0	34.4154	38.0443	34.8412
15.6258	22.5702	1.05778	0	31.6579	35.5878	33.1669
16.4189	22.5702	1.05778	0	23.7315	27.7663	26.2012
17.212	22.5702	1.05778	0	0	0	0
18.0051	22.5702	1.05778	0	0	0	0
-4.99194	23.1013	1.06	39.5717	0	0	0
-4.19883	23.1013	1.06	39.9702	0	0	28.5903
-3.40573	23.1013	1.06	40.3393	0	0	29.8395
-2.61263	23.1013	1.06	40.6709	0	29.26	30.6871
-1.81952	23.1013	1.06	40.9485	0	32.0196	31.3881
-1.02642	23.1013	1.06	41.1709	0	33.9239	31.9928
-0.233317	23.1013	1.06	41.3601	30.4671	35.113	32.5341
0.559787	23.1013	1.06	41.4894	32.8859	35.8663	33.023
1.35289	23.1013	1.06	41.5677	34.5731	36.4731	33.4812
2.14599	23.1013	1.06	41.6133	35.6399	36.9955	33.9045
2.9391	23.1013	1.06	41.6377	36.3459	37.4388	34.3001
3.7322	23.1013	1.06	41.645	36.9321	37.8523	34.6545
4.5253	23.1013	1.06	41.6326	37.4253	38.2573	34.996
5.31841	23.1013	1.06	41.5917	37.8783	38.6396	35.2506
6.11151	23.1013	1.06	41.5146	38.2878	38.9047	35.5561
6.90461	23.1013	1.06	41.4192	38.6707	39.2231	35.8009
7.69772	23.1013	1.06	41.2593	38.9903	39.3757	36.0207
8.49082	23.1013	1.06	40.9532	39.3055	39.5318	36.2029
9.28392	23.1013	1.06	40.408	39.5041	39.6275	36.3535
10.077	23.1013	1.06	39.4823	39.5917	39.7091	36.4445
10.8701	23.1013	1.06	37.6062	39.5731	39.693	36.4454
11.6632	23.1013	1.06	32.5625	39.4901	39.7384	36.3377
12.4563	23.1013	1.06	26.0326	39.1424	39.6553	36.1781
13.2494	23.1013	1.06	-19.8583	38.0252	39.4629	35.8817
14.0425	23.1013	1.06	0	36.3054	39.0362	35.4931
14.8356	23.1013	1.06	0	34.3994	38.0268	34.755
15.6288	23.1013	1.06	0	31.642	35.5716	33.0815
16.4219	23.1013	1.06	0	23.7156	27.7506	26.1165
17.215	23.1013	1.06	0	0	0	0
18.0081	23.1013	1.06	0	0	0	0
-4.98939	23.6449	1.0649	39.5441	0	0	0
-4.19628	23.6449	1.0649	39.9421	0	0	28.5201
-3.40318	23.6449	1.0649	40.3106	0	0	29.7691
-2.61008	23.6449	1.0649	40.641	0	29.2548	30.6162
-1.81697	23.6449	1.0649	40.9169	0	32.0137	31.3168
-1.02387	23.6449	1.0649	41.1375	0	33.9155	31.9212
-0.230767	23.6449	1.0649	41.3253	30.4616	35.103	32.4621
0.562337	23.6449	1.0649	41.453	32.8796	35.8551	32.9506
1.35544	23.6449	1.0649	41.5303	34.5642	36.4614	33.4084
2.14854	23.6449	1.0649	41.5753	35.6294	36.9833	33.8312
2.94165	23.6449	1.0649	41.5994	36.3346	37.4266	34.2262
3.73475	23.6449	1.0649	41.6064	36.9203	37.8398	34.5798
4.52785	23.6449	1.0649	41.5935	37.4132	38.2443	34.9205
5.32096	23.6449	1.0649	41.5521	37.8661	38.6259	35.174
6.11406	23.6449	1.0649	41.4742	38.2754	38.8901	35.4786
6.90716	23.6449	1.0649	41.3777	38.6578	39.2075	35.7223
7.70027	23.6449	1.0649	41.2157	38.9771	39.359	35.9411
8.49337	23.6449	1.0649	40.9058	39.291	39.5142	36.1223
9.28647	23.6449	1.0649	40.3542	39.4882	39.6088	36.2719
10.0796	23.6449	1.0649	39.4225	39.5748	39.6894	36.3621
10.8727	23.6449	1.0649	37.5461	39.5554	39.6744	36.3625
11.6658	23.6449	1.0649	32.4976	39.4722	39.7197	36.2551
12.4589	23.6449	1.0649	25.7954	39.1256	39.6362	36.0961
13.252	23.6449	1.0649	-21.2002	38.0102	39.4442	35.8005
14.0451	23.6449	1.0649	0	36.2908	39.018	35.4127
14.8382	23.6449	1.0649	0	34.3849	38.011	34.6755
15.6313	23.6449	1.0649	0	31.6275	35.5571	33.0028
16.4244	23.6449	1.0649	0	23.7012	27.7363	26.0386
17.2175	23.6449	1.0649	0	0	0	0
18.0106	23.6449	1.0649	0	0	0	0
-4.98666	24.2013	1.06807	39.512	0	0	0
-4.19356	24.2013	1.06807	39.9095	0	0	28.44
-3.40045	24.2013	1.06807	40.2772	0	0	29.6888
-2.60735	24.2013	1.06807	40.6065	0	29.2454	30.5355
-1.81425	24.2013	1.06807	40.8809	0	32.0037	31.2357
-1.02114	24.2013	1.06807	41.0997	0	33.9029	31.8397
-0.228038	24.2013	1.06807	41.2861	30.452	35.0886	32.3802
0.565065	24.2013	1.06807	41.4124	32.8691	35.8394	32.8684
1.35817	24.2013	1.06807	41.4888	34.5509	36.4453	33.3257
2.15127	24.2013	1.06807	41.5333	35.6144	36.9667	33.748
2.94438	24.2013	1.06807	41.557	36.3188	37.4098	34.1425
3.73748	24.2013	1.06807	41.5636	36.904	37.8228	34.4954
4.53058	24.2013	1.06807	41.5504	37.3966	38.2267	34.8353
5.32369	24.2013	1.06807	41.5084	37.8494	38.6076	35.0878
6.11679	24.2013	1.06807	41.4298	38.2585	38.871	35.3915
6.90989	24.2013	1.06807	41.3322	38.6404	39.1874	35.6342
7.703	24.2013	1.06807	41.1681	38.9593	39.338	35.8521
8.4961	24.2013	1.06807	40.8544	39.272	39.4924	36.0323
9.2892	24.2013	1.06807	40.2961	39.468	39.5859	36.1811
10.0823	24.2013	1.06807	39.3579	39.5536	39.6656	36.2706
10.8754	24.2013	1.06807	37.481	39.5334	39.6517	36.2705
11.6685	24.2013	1.06807	32.4292	39.4502	39.6969	36.1633
12.4616	24.2013	1.06807	25.5492	39.1048	39.613	36.0049
13.2547	24.2013	1.06807	-22.5772	37.9914	39.4214	35.7102
14.0478	24.2013	1.06807	0	36.2725	38.9958	35.323
14.8409	24.2013	1.06807	0	34.3666	37.9913	34.5867
15.634	24.2013	1.06807	0	31.6093	35.5387	32.9148
16.4271	24.2013	1.06807	0	23.683	27.7183	25.9514
17.2202	24.2013	1.06807	0	0	0	0
18.0133	24.2013	1.06807	0	0	0	0
-4.98429	24.7708	1.07383	39.4829	0	0	0
-4.19119	24.7708	1.07383	39.8798	0	0	28.3672
-3.39809	24.7708	1.07383	40.2468	0	0	29.6158
-2.60498	24.7708	1.07383	40.575	0	29.2378	30.4621
-1.81188	24.7708	1.07383	40.8477	0	31.9954	31.162
-1.01878	24.7708	1.07383	41.0645	0	33.8924	31.7656
-0.225674	24.7708	1.07383	41.2495	30.4441	35.0765	32.3057
0.567429	24.7708	1.07383	41.3743	32.8604	35.8263	32.7934
1.36053	24.7708	1.07383	41.4497	34.5399	36.4317	33.2504
2.15364	24.7708	1.07383	41.4936	35.6018	36.9527	33.6722
2.94674	24.7708	1.07383	41.517	36.3055	37.3958	34.066
3.73984	24.7708	1.07383	41.5234	36.8903	37.8084	34.4182
4.53295	24.7708	1.07383	41.5098	37.3827	38.2118	34.7572
5.32605	24.7708	1.07383	41.4672	37.8354	38.5921	35.0086
6.11915	24.7708	1.07383	41.388	38.2443	38.8546	35.3114
6.91226	24.7708	1.07383	41.2891	38.6257	39.1699	35.5531
7.70536	24.7708	1.07383	41.1229	38.9442	39.3196	35.7699
8.49846	24.7708	1.07383	40.8054	39.2557	39.473	35.9491
9.29157	24.7708	1.07383	40.2402	39.4504	39.5654	36.097
10.0847	24.7708	1.07383	39.2949	39.5348	39.6442	36.1856
10.8778	24.7708	1.07383	37.4176	39.5138	39.6313	36.1851
11.6709	24.7708	1.07383	32.3634	39.4304	39.6763	36.078
12.464	24.7708	1.07383	25.3003	39.086	39.5922	35.9203
13.2571	24.7708	1.07383	-23.9835	37.9743	39.4009	35.6264
14.0502	24.7708	1.07383	0	36.2558	38.9757	35.24
14.8433	24.7708	1.07383	0	34.35	37.9735	34.5046
15.6364	24.7708	1.07383	0	31.5927	35.522	32.8336
16.4295	24.7708	1.07383	0	23.6665	27.7019	25.8709
17.2226	24.7708	1.07383	0	0	0	0
18.0157	24.7708	1.07383	0	0	0	0
-4.98202	25.3536	1.07999	39.4529	0	0	0
-4.18891	25.3536	1.07999	39.8493	0	0	28.293
-3.39581	25.3536	1.07999	40.2156	0	0	29.5414
-2.60271	25.3536	1.07999	40.5426	0	29.229	30.3874
-1.8096	25.3536	1.07999	40.8136	0	31.986	31.0869
-1.0165	25.3536	1.07999	41.0286	0	33.8808	31.6902
-0.223395	25.3536	1.07999	41.2121	30.4351	35.0634	32.23
0.569709	25.3536	1.07999	41.3353	32.8507	35.8122	32.7172
1.36281	25.3536	1.07999	41.4098	34.5278	36.4172	33.1738
2.15592	25.3536	1.07999	41.4532	35.5883	36.9378	33.595
2.94902	25.3536	1.07999	41.4762	36.2913	37.3808	33.9883
3.74212	25.3536	1.07999	41.4823	36.8757	37.7932	34.3396
4.53523	25.3536	1.07999	41.4683	37.3678	38.1961	34.6778
5.32833	25.3536	1.07999	41.4252	37.8204	38.5757	34.9282
6.12143	25.3536	1.07999	41.3454	38.2291	38.8372	35.23
6.91454	25.3536	1.07999	41.2454	38.61	39.1516	35.4706
7.70764	25.3536	1.07999	41.0771	38.9282	39.3002	35.6864
8.50074	25.3536	1.07999	40.7555	39.2384	39.4526	35.8645
9.29385	25.3536	1.07999	40.1832	39.4318	39.544	36.0115
10.087	25.3536	1.07999	39.2304	39.5151	39.622	36.0993
10.8801	25.3536	1.07999	37.3525	39.4933	39.6101	36.0983
11.6732	25.3536	1.07999	32.2967	39.4097	39.6549	35.9915
12.4663	25.3536	1.07999	25.0453	39.0663	39.5704	35.8344
13.2594	25.3536	1.07999	-25.423	37.9562	39.3794	35.5414
14.0525	25.3536	1.07999	0	36.2381	38.9547	35.1556
14.8456	25.3536	1.07999	0	34.3324	37.9548	34.4213
15.6387	25.3536	1.07999	0	31.5751	35.5042	32.7511
16.4318	25.3536	1.07999	0	23.649	27.6845	25.7892
17.2249	25.3536	1.07999	0	0	0	0
18.018	25.3536	1.07999	0	0	0	0
-4.97982	25.9502	1.08655	39.4221	0	0	0
-4.18671	25.9502	1.08655	39.8179	0	0	28.2175
-3.39361	25.9502	1.08655	40.1836	0	0	29.4658
-2.60051	25.9502	1.08655	40.5095	0	29.219	30.3113
-1.8074	25.9502	1.08655	40.7788	0	31.9755	31.0105
-1.0143	25.9502	1.08655	40.9917	0	33.8681	31.6135
-0.221198	25.9502	1.08655	41.1738	30.4249	35.0493	32.1529
0.571906	25.9502	1.08655	41.2955	32.8397	35.7972	32.6397
1.36501	25.9502	1.08655	41.369	34.5146	36.4018	33.0958
2.15811	25.9502	1.08655	41.4119	35.5737	36.922	33.5166
2.95122	25.9502	1.08655	41.4346	36.2762	37.3649	33.9092
3.74432	25.9502	1.08655	41.4404	36.8601	37.777	34.2598
4.53742	25.9502	1.08655	41.4261	37.352	38.1794	34.5971
5.33053	25.9502	1.08655	41.3824	37.8045	38.5583	34.8464
6.12363	25.9502	1.08655	41.3021	38.213	38.819	35.1472
6.91673	25.9502	1.08655	41.201	38.5935	39.1323	35.3868
7.70984	25.9502	1.08655	41.0305	38.9112	39.2799	35.6015
8.50294	25.9502	1.08655	40.7049	39.2202	39.4314	35.7786
9.29604	25.9502	1.08655	40.1251	39.4123	39.5218	35.9247
10.0891	25.9502	1.08655	39.1642	39.4944	39.5988	36.0117
10.8823	25.9502	1.08655	37.2857	39.4718	39.5879	36.0102
11.6754	25.9502	1.08655	32.2288	39.3881	39.6325	35.9036
12.4685	25.9502	1.08655	24.7841	39.0456	39.5477	35.7471
13.2616	25.9502	1.08655	-26.8967	37.937	39.3571	35.455
14.0547	25.9502	1.08655	0	36.2193	38.9328	35.0699
14.8478	25.9502	1.08655	0	34.3137	37.9349	34.3365
15.6409	25.9502	1.08655	0	31.5565	35.4855	32.6672
16.434	25.9502	1.08655	0	23.6304	27.666	25.7061
17.2271	25.9502	1.08655	0	0	0	0
18.0202	25.9502	1.08655	0	0	0	0
-4.97747	26.5609	1.0915	39.3865	0	0	0
-4.18437	26.5609	1.0915	39.7818	0	0	28.1317
-3.39126	26.5609	1.0915	40.1467	0	0	29.3798
-2.59816	26.5609	1.0915	40.4715	0	29.2045	30.225
-1.80506	26.5609	1.0915	40.7392	0	31.9604	30.9238
-1.01195	26.5609	1.0915	40.9503	0	33.8508	31.5264
-0.21885	26.5609	1.0915	41.1309	30.4102	35.0304	32.0655
0.574253	26.5609	1.0915	41.2512	32.8243	35.7774	32.552
1.36736	26.5609	1.0915	41.3238	34.4968	36.3816	33.0077
2.16046	26.5609	1.0915	41.3662	35.5544	36.9013	33.4279
2.95356	26.5609	1.0915	41.3886	36.2562	37.3442	33.82
3.74667	26.5609	1.0915	41.3942	36.8397	37.756	34.1698
4.53977	26.5609	1.0915	41.3795	37.3313	38.1579	34.5063
5.33287	26.5609	1.0915	41.3353	37.7837	38.5362	34.7545
6.12598	26.5609	1.0915	41.2545	38.1921	38.796	35.0545
6.91908	26.5609	1.0915	41.1524	38.5721	39.1083	35.293
7.71218	26.5609	1.0915	40.9797	38.8895	39.255	35.5068
8.50529	26.5609	1.0915	40.6501	39.1973	39.4056	35.6829
9.29839	26.5609	1.0915	40.0625	39.3881	39.495	35.8282
10.0915	26.5609	1.0915	39.0929	39.4692	39.5712	35.9144
10.8846	26.5609	1.0915	37.2137	39.4459	39.5613	35.9124
11.6777	26.5609	1.0915	32.156	39.362	39.6057	35.8061
12.4708	26.5609	1.0915	24.513	39.0206	39.5206	35.6502
13.2639	26.5609	1.0915	-28.4087	37.9137	39.3303	35.359
14.057	26.5609	1.0915	0	36.1964	38.9064	34.9746
14.8501	26.5609	1.0915	0	34.2909	37.9109	34.2421
15.6432	26.5609	1.0915	0	31.5336	35.4625	32.5736
16.4363	26.5609	1.0915	0	23.6076	27.6434	25.6132
17.2294	26.5609	1.0915	0	0	0	0
18.0225	26.5609	1.0915	0	0	0	0
-4.97566	27.1859	1.10089	39.358	0	0	0
-4.18256	27.1859	1.10089	39.7528	0	0	28.0623
-3.38946	27.1859	1.10089	40.117	0	0	29.3102
-2.59635	27.1859	1.10089	40.4406	0	29.1955	30.155
-1.80325	27.1859	1.10089	40.7064	0	31.9509	30.8535
-1.01014	27.1859	1.10089	40.9154	0	33.8395	31.4558
-0.217041	27.1859	1.10089	41.0944	30.401	35.018	31.9945
0.576062	27.1859	1.10089	41.2131	32.8144	35.7641	32.4806
1.36917	27.1859	1.10089	41.2849	34.4851	36.368	32.9358
2.16227	27.1859	1.10089	41.3267	35.5416	36.8874	33.3555
2.95537	27.1859	1.10089	41.3488	36.2428	37.3302	33.7469
3.74848	27.1859	1.10089	41.3541	36.826	37.7417	34.0959
4.54158	27.1859	1.10089	41.3391	37.3174	38.1433	34.4314
5.33468	27.1859	1.10089	41.2945	37.7697	38.5209	34.6786
6.12779	27.1859	1.10089	41.2132	38.1779	38.7797	34.9775
6.92089	27.1859	1.10089	41.11	38.5575	39.0909	35.2149
7.71399	27.1859	1.10089	40.9351	38.8745	39.2364	35.4275
8.5071	27.1859	1.10089	40.6014	39.181	39.3859	35.6025
9.3002	27.1859	1.10089	40.0059	39.3704	39.4743	35.7468
10.0933	27.1859	1.10089	39.027	39.4502	39.5499	35.8321
10.8864	27.1859	1.10089	37.1469	39.426	39.5407	35.8296
11.6795	27.1859	1.10089	32.0887	39.3419	39.5849	35.7235
12.4726	27.1859	1.10089	24.2425	39.0012	39.4995	35.5683
13.2657	27.1859	1.10089	-29.9494	37.8955	39.3095	35.278
14.0588	27.1859	1.10089	0	36.1786	38.8859	34.8943
14.8519	27.1859	1.10089	0	34.2731	37.8922	34.1629
15.645	27.1859	1.10089	0	31.5159	35.4447	32.4953
16.4381	27.1859	1.10089	0	23.5899	27.6257	25.5357
17.2312	27.1859	1.10089	0	0	0	0
18.0243	27.1859	1.10089	0	0	0	0
-4.97349	27.8256	1.10667	39.3205	0	0	0
-4.18038	27.8256	1.10667	39.7147	0	0	27.9734
-3.38728	27.8256	1.10667	40.0782	0	0	29.2211
-2.59418	27.8256	1.10667	40.4007	0	29.1784	30.0656
-1.80107	27.8256	1.10667	40.6649	0	31.9333	30.7637
-1.00797	27.8256	1.10667	40.872	0	33.8198	31.3657
-0.214865	27.8256	1.10667	41.0496	30.3837	34.9968	31.904
0.578238	27.8256	1.10667	41.1669	32.7965	35.7421	32.3897
1.37134	27.8256	1.10667	41.2377	34.4649	36.3456	32.8445
2.16445	27.8256	1.10667	41.279	35.52	36.8646	33.2637
2.95755	27.8256	1.10667	41.3009	36.2206	37.3073	33.6546
3.75065	27.8256	1.10667	41.306	36.8034	37.7186	34.0028
4.54376	27.8256	1.10667	41.2907	37.2947	38.1197	34.3375
5.33686	27.8256	1.10667	41.2456	37.7469	38.4966	34.5836
6.12996	27.8256	1.10667	41.164	38.1549	38.7546	34.8816
6.92307	27.8256	1.10667	41.0597	38.534	39.0648	35.118
7.71617	27.8256	1.10667	40.8827	38.8506	39.2093	35.3296
8.50927	27.8256	1.10667	40.5448	39.156	39.358	35.5037
9.30238	27.8256	1.10667	39.941	39.3441	39.4455	35.647
10.0955	27.8256	1.10667	38.9522	39.4229	39.5202	35.7317
10.8886	27.8256	1.10667	37.0711	39.398	39.5121	35.7287
11.6817	27.8256	1.10667	32.0127	39.3137	39.556	35.6228
12.4748	27.8256	1.10667	23.9582	38.9739	39.4703	35.4682
13.2679	27.8256	1.10667	-31.5338	37.8698	39.2806	35.1787
14.061	27.8256	1.10667	0	36.1533	38.8575	34.7958
14.8541	27.8256	1.10667	0	34.2478	37.8659	34.0653
15.6472	27.8256	1.10667	0	31.4907	35.4193	32.3985
16.4403	27.8256	1.10667	0	23.5648	27.6007	25.4397
17.2334	27.8256	1.10667	0	0	0	0
18.0265	27.8256	1.10667	0	0	0	0
-4.97181	28.4804	1.11681	39.2903	0	0	0
-4.17871	28.4804	1.11681	39.684	0	0	27.901
-3.3856	28.4804	1.11681	40.0468	0	0	29.1485
-2.5925	28.4804	1.11681	40.368	0	29.167	29.9927
-1.7994	28.4804	1.11681	40.6303	0	31.9214	30.6906
-1.00629	28.4804	1.11681	40.8354	0	33.8063	31.2922
-0.21319	28.4804	1.11681	41.0113	30.3722	34.9823	31.8302
0.579914	28.4804	1.11681	41.1271	32.7844	35.7268	32.3154
1.37302	28.4804	1.11681	41.197	34.4511	36.3301	32.7698
2.16612	28.4804	1.11681	41.2378	35.5052	36.8488	33.1885
2.95922	28.4804	1.11681	41.2594	36.2053	37.2915	33.5787
3.75233	28.4804	1.11681	41.2642	36.7878	37.7025	33.926
4.54543	28.4804	1.11681	41.2487	37.2788	38.1031	34.2598
5.33853	28.4804	1.11681	41.2032	37.731	38.4794	34.5047
6.13164	28.4804	1.11681	41.1212	38.1388	38.7365	34.8017
6.92474	28.4804	1.11681	41.0159	38.5175	39.0455	35.0369
7.71784	28.4804	1.11681	40.8367	38.8336	39.1888	35.2474
8.51095	28.4804	1.11681	40.4948	39.1377	39.3365	35.4203
9.30405	28.4804	1.11681	39.8825	39.3244	39.4229	35.5627
10.0972	28.4804	1.11681	38.8829	39.402	39.497	35.6465
10.8903	28.4804	1.11681	37.0007	39.3761	39.4895	35.6429
11.6834	28.4804	1.11681	31.9422	39.2915	39.5333	35.5373
12.4765	28.4804	1.11681	23.6743	38.9525	39.4474	35.3834
13.2696	28.4804	1.11681	-33.1483	37.8495	39.2579	35.0948
14.0627	28.4804	1.11681	0	36.1333	38.835	34.7126
14.8558	28.4804	1.11681	0	34.2279	37.8451	33.9831
15.6489	28.4804	1.11681	0	31.4708	35.3993	32.3172
16.442	28.4804	1.11681	0	23.5449	27.5809	25.3593
17.2351	28.4804	1.11681	0	0	0	0
18.0282	28.4804	1.11681	0	0	0	0
-4.96999	29.1505	1.12537	39.255	0	0	0
-4.17689	29.1505	1.12537	39.6482	0	0	27.8179
-3.38379	29.1505	1.12537	40.0102	0	0	29.0652
-2.59068	29.1505	1.12537	40.3303	0	29.1509	29.9091
-1.79758	29.1505	1.12537	40.5908	0	31.9048	30.6067
-1.00448	29.1505	1.12537	40.7939	0	33.788	31.2079
-0.211373	29.1505	1.12537	40.9682	30.3559	34.9628	31.7456
0.58173	29.1505	1.12537	41.0825	32.7674	35.7065	32.2304
1.37483	29.1505	1.12537	41.1515	34.4323	36.3095	32.6844
2.16794	29.1505	1.12537	41.1919	35.4852	36.8279	33.1025
2.96104	29.1505	1.12537	41.2132	36.1849	37.2705	33.4921
3.75414	29.1505	1.12537	41.2179	36.7671	37.6813	33.8386
4.54725	29.1505	1.12537	41.2021	37.2579	38.0815	34.1715
5.34035	29.1505	1.12537	41.1562	37.7099	38.4571	34.4153
6.13345	29.1505	1.12537	41.0739	38.1176	38.7132	34.7113
6.92656	29.1505	1.12537	40.9677	38.4958	39.0212	34.9454
7.71966	29.1505	1.12537	40.7863	38.8115	39.1634	35.1548
8.51276	29.1505	1.12537	40.4402	39.1145	39.3101	35.3267
9.30587	29.1505	1.12537	39.8193	39.2998	39.3956	35.4681
10.099	29.1505	1.12537	38.8081	39.3762	39.469	35.5511
10.8921	29.1505	1.12537	36.9247	39.3496	39.4624	35.547
11.6852	29.1505	1.12537	31.8663	39.2647	39.5059	35.4417
12.4783	29.1505	1.12537	23.3798	38.9264	39.4197	35.2884
13.2714	29.1505	1.12537	-34.8048	37.8247	39.2305	35.0007
14.0645	29.1505	1.12537	0	36.1088	38.8079	34.6192
14.8576	29.1505	1.12537	0	34.2035	37.8198	33.8907
15.6507	29.1505	1.12537	0	31.4464	35.3749	32.2257
16.4438	29.1505	1.12537	0	23.5206	27.5567	25.2686
17.2369	29.1505	1.12537	0	0	0	0
18.03	29.1505	1.12537	0	0	0	0
-4.96844	29.8365	1.13624	39.223	0	0	0
-4.17534	29.8365	1.13624	39.6157	0	0	27.7424
-3.38223	29.8365	1.13624	39.977	0	0	28.9896
-2.58913	29.8365	1.13624	40.2958	0	29.1372	29.8332
-1.79602	29.8365	1.13624	40.5545	0	31.8907	30.5304
-1.00292	29.8365	1.13624	40.7555	0	33.7723	31.1314
-0.209818	29.8365	1.13624	40.9281	30.342	34.9461	31.6686
0.583286	29.8365	1.13624	41.0409	32.753	35.6893	32.1531
1.37639	29.8365	1.13624	41.109	34.4164	36.292	32.6066
2.16949	29.8365	1.13624	41.1489	35.4683	36.8101	33.0242
2.9626	29.8365	1.13624	41.1699	36.1675	37.2526	33.4131
3.7557	29.8365	1.13624	41.1744	36.7494	37.6632	33.7587
4.5488	29.8365	1.13624	41.1583	37.2401	38.0629	34.0907
5.34191	29.8365	1.13624	41.112	37.692	38.4379	34.3333
6.13501	29.8365	1.13624	41.0295	38.0995	38.693	34.6282
6.92811	29.8365	1.13624	40.9224	38.4773	38.9998	34.8611
7.72122	29.8365	1.13624	40.7389	38.7925	39.1409	35.0694
8.51432	29.8365	1.13624	40.3887	39.0942	39.2865	35.2402
9.30742	29.8365	1.13624	39.7589	39.2782	39.3711	35.3806
10.1005	29.8365	1.13624	38.7354	39.3532	39.4439	35.4627
10.8936	29.8365	1.13624	36.8506	39.3257	39.4379	35.4581
11.6867	29.8365	1.13624	31.7923	39.2406	39.4812	35.353
12.4798	29.8365	1.13624	23.082	38.9029	39.3947	35.2004
13.2729	29.8365	1.13624	-36.4967	37.8023	39.2057	34.9136
14.066	29.8365	1.13624	0	36.0867	38.7835	34.5329
14.8591	29.8365	1.13624	0	34.1814	37.7969	33.8054
15.6523	29.8365	1.13624	0	31.4243	35.3527	32.1413
16.4454	29.8365	1.13624	0	23.4986	27.5347	25.185
17.2385	29.8365	1.13624	0	0	0	0
18.0316	29.8365	1.13624	0	0	0	0
-4.96675	30.5386	1.14557	39.1857	0	0	0
-4.17365	30.5386	1.14557	39.5779	0	0	27.6557
-3.38055	30.5386	1.14557	39.9384	0	0	28.9027
-2.58744	30.5386	1.14557	40.256	0	29.1184	29.746
-1.79434	30.5386	1.14557	40.5129	0	31.8715	30.4429
-1.00124	30.5386	1.14557	40.7119	0	33.7515	31.0436
-0.208133	30.5386	1.14557	40.8828	30.3231	34.9242	31.5805
0.58497	30.5386	1.14557	40.9942	32.7335	35.6666	32.0645
1.37807	30.5386	1.14557	41.0615	34.3951	36.2691	32.5176
2.17118	30.5386	1.14557	41.1009	35.446	36.7869	32.9347
2.96428	30.5386	1.14557	41.1217	36.1448	37.2293	33.323
3.75738	30.5386	1.14557	41.126	36.7264	37.6397	33.6677
4.55049	30.5386	1.14557	41.1097	37.2169	38.039	33.9988
5.34359	30.5386	1.14557	41.0631	37.6687	38.4133	34.2403
6.13669	30.5386	1.14557	40.9804	38.076	38.6676	34.5342
6.9298	30.5386	1.14557	40.8724	38.4534	38.9732	34.766
7.7229	30.5386	1.14557	40.6869	38.7682	39.1132	34.9732
8.516	30.5386	1.14557	40.3325	39.0687	39.2579	35.1429
9.30911	30.5386	1.14557	39.6937	39.2513	39.3416	35.2825
10.1022	30.5386	1.14557	38.6569	39.3252	39.4137	35.3637
10.8953	30.5386	1.14557	36.7705	39.2969	39.4084	35.3586
11.6884	30.5386	1.14557	31.7124	39.2115	39.4515	35.2538
12.4815	30.5386	1.14557	22.7729	38.8745	39.3648	35.1018
13.2746	30.5386	1.14557	-38.2326	37.7751	39.1761	34.8159
14.0677	30.5386	1.14557	0	36.0597	38.7541	34.4359
14.8608	30.5386	1.14557	0	34.1545	37.7692	33.7094
15.6539	30.5386	1.14557	0	31.3975	35.3258	32.0462
16.447	30.5386	1.14557	0	23.4718	27.508	25.0907
17.2401	30.5386	1.14557	0	0	0	0
18.0332	30.5386	1.14557	0	0	0	0
-4.96531	31.2572	1.15718	39.1517	0	0	0
-4.17221	31.2572	1.15718	39.5434	0	0	27.5767
-3.37911	31.2572	1.15718	39.9031	0	0	28.8236
-2.586	31.2572	1.15718	40.2195	0	29.1022	29.6666
-1.7929	31.2572	1.15718	40.4746	0	31.8549	30.3632
-0.999795	31.2572	1.15718	40.6714	0	33.7335	30.9635
-0.206692	31.2572	1.15718	40.8406	30.3067	34.9052	31.5001
0.586412	31.2572	1.15718	40.9505	32.7167	35.6471	31.9837
1.37952	31.2572	1.15718	41.0169	34.3768	36.2493	32.4363
2.17262	31.2572	1.15718	41.0559	35.4268	36.7669	32.8529
2.96572	31.2572	1.15718	41.0764	36.1251	37.2092	33.2405
3.75883	31.2572	1.15718	41.0805	36.7065	37.6194	33.5844
4.55193	31.2572	1.15718	41.0641	37.1968	38.0183	33.9144
5.34503	31.2572	1.15718	41.0171	37.6486	38.3919	34.1547
6.13814	31.2572	1.15718	40.9343	38.0557	38.6452	34.4476
6.93124	31.2572	1.15718	40.8255	38.4327	38.9497	34.6782
7.72434	31.2572	1.15718	40.6379	38.747	39.0884	34.8843
8.51745	31.2572	1.15718	40.2795	39.0462	39.2321	35.0528
9.31055	31.2572	1.15718	39.6315	39.2273	39.3149	35.1914
10.1037	31.2572	1.15718	38.5806	39.3	39.3863	35.2718
10.8968	31.2572	1.15718	36.6923	39.2708	39.3817	35.2661
11.6899	31.2572	1.15718	31.6346	39.1851	39.4246	35.1616
12.483	31.2572	1.15718	22.4604	38.8487	39.3376	35.0102
13.2761	31.2572	1.15718	-40.0055	37.7502	39.1491	34.7253
14.0692	31.2572	1.15718	0	36.0352	38.7274	34.3461
14.8623	31.2572	1.15718	0	34.13	37.744	33.6206
15.6554	31.2572	1.15718	0	31.373	35.3012	31.9583
16.4485	31.2572	1.15718	0	23.4474	27.4836	25.0036
17.2416	31.2572	1.15718	0	0	0	0
18.0347	31.2572	1.15718	0	0	0	0
-4.96375	31.9927	1.16729	39.1121	0	0	0
-4.17065	31.9927	1.16729	39.5032	0	0	27.4859
-3.37755	31.9927	1.16729	39.8622	0	0	28.7326
-2.58444	31.9927	1.16729	40.1773	0	29.0805	29.5753
-1.79134	31.9927	1.16729	40.4306	0	31.8328	30.2716
-0.998236	31.9927	1.16729	40.6255	0	33.7099	30.8716
-0.205132	31.9927	1.16729	40.793	30.2849	34.8806	31.4078
0.587971	31.9927	1.16729	40.9015	32.6944	35.6219	31.891
1.38107	31.9927	1.16729	40.967	34.3529	36.2238	32.3433
2.17418	31.9927	1.16729	41.0056	35.4019	36.7411	32.7593
2.96728	31.9927	1.16729	41.026	36.0998	37.1834	33.1462
3.76039	31.9927	1.16729	41.0299	36.6809	37.5933	33.4893
4.55349	31.9927	1.16729	41.0132	37.1711	37.9918	33.8185
5.34659	31.9927	1.16729	40.966	37.6228	38.3648	34.0576
6.1397	31.9927	1.16729	40.8832	38.0297	38.6172	34.3495
6.9328	31.9927	1.16729	40.7735	38.4063	38.9205	34.5789
7.7259	31.9927	1.16729	40.5839	38.7201	39.0582	34.7839
8.51901	31.9927	1.16729	40.2214	39.0182	39.2009	34.9514
9.31211	31.9927	1.16729	39.5642	39.1979	39.2828	35.0891
10.1052	31.9927	1.16729	38.4982	39.2693	39.3537	35.1686
10.8983	31.9927	1.16729	36.6078	39.2394	39.3497	35.1625
11.6914	31.9927	1.16729	31.5505	39.1534	39.3923	35.0582
12.4845	31.9927	1.16729	22.136	38.8176	39.3052	34.9075
13.2776	31.9927	1.16729	-41.8247	37.7203	39.1169	34.6235
14.0707	31.9927	1.16729	0	36.0055	38.6954	34.2449
14.8638	31.9927	1.16729	0	34.1004	37.7136	33.5205
15.6569	31.9927	1.16729	0	31.3434	35.2715	31.859
16.45	31.9927	1.16729	0	23.4178	27.4541	24.9052
17.2431	31.9927	1.16729	0	0	0	0
18.0362	31.9927	1.16729	0	0	0	0
-4.96242	32.7455	1.17966	39.0759	0	0	0
-4.16932	32.7455	1.17966	39.4665	0	0	27.4029
-3.37621	32.7455	1.17966	39.8247	0	0	28.6494
-2.58311	32.7455	1.17966	40.1385	0	29.0615	29.4918
-1.79001	32.7455	1.17966	40.3899	0	31.8134	30.1879
-0.996903	32.7455	1.17966	40.5827	0	33.6892	30.7875
-0.2038	32.7455	1.17966	40.7485	30.2657	34.8591	31.3234
0.589304	32.7455	1.17966	40.8555	32.6747	35.5998	31.8062
1.38241	32.7455	1.17966	40.9202	34.3319	36.2015	32.258
2.17551	32.7455	1.17966	40.9583	35.3801	36.7186	32.6734
2.96861	32.7455	1.17966	40.9784	36.0777	37.1609	33.0597
3.76172	32.7455	1.17966	40.9822	36.6585	37.5705	33.4018
4.55482	32.7455	1.17966	40.9654	37.1485	37.9686	33.73
5.34792	32.7455	1.17966	40.9179	37.6001	38.341	33.9679
6.14103	32.7455	1.17966	40.8351	38.0069	38.5923	34.2588
6.93413	32.7455	1.17966	40.7247	38.383	38.8945	34.487
7.72723	32.7455	1.17966	40.5331	38.6963	39.0309	34.6908
8.52034	32.7455	1.17966	40.1666	38.9932	39.1726	34.8573
9.31344	32.7455	1.17966	39.5001	39.1714	39.2536	34.9939
10.1065	32.7455	1.17966	38.418	39.2416	39.3239	35.0726
10.8996	32.7455	1.17966	36.5252	39.2108	39.3205	35.0659
11.6928	32.7455	1.17966	31.4683	39.1245	39.3629	34.9619
12.4859	32.7455	1.17966	21.8078	38.7892	39.2755	34.8118
13.279	32.7455	1.17966	-43.6828	37.6928	39.0874	34.5287
14.0721	32.7455	1.17966	0	35.9782	38.6662	34.151
14.8652	32.7455	1.17966	0	34.0732	37.6858	33.4275
15.6583	32.7455	1.17966	0	31.3162	35.2443	31.767
16.4514	32.7455	1.17966	0	23.3907	27.427	24.814
17.2445	32.7455	1.17966	0	0	0	0
18.0376	32.7455	1.17966	0	0	0	0
-4.96114	33.516	1.19241	39.0385	0	0	0
-4.16803	33.516	1.19241	39.4286	0	0	27.3177
-3.37493	33.516	1.19241	39.786	0	0	28.5641
-2.58183	33.516	1.19241	40.0985	0	29.041	29.4062
-1.78872	33.516	1.19241	40.348	0	31.7926	30.1019
-0.99562	33.516	1.19241	40.5387	0	33.6671	30.7013
-0.202517	33.516	1.19241	40.7027	30.2451	34.8362	31.2368
0.590587	33.516	1.19241	40.8082	32.6537	35.5764	31.7191
1.38369	33.516	1.19241	40.8721	34.3096	36.1779	32.1705
2.17679	33.516	1.19241	40.9098	35.3569	36.6947	32.5854
2.9699	33.516	1.19241	40.9297	36.0541	37.1369	32.971
3.763	33.516	1.19241	40.9334	36.6347	37.5464	33.3122
4.5561	33.516	1.19241	40.9164	37.1246	37.9441	33.6394
5.34921	33.516	1.19241	40.8687	37.5762	38.3158	33.8761
6.14231	33.516	1.19241	40.7859	37.9828	38.5661	34.1659
6.93541	33.516	1.19241	40.6748	38.3585	38.8671	34.3929
7.72852	33.516	1.19241	40.4812	38.6712	39.0023	34.5956
8.52162	33.516	1.19241	40.1109	38.9669	39.143	34.7609
9.31472	33.516	1.19241	39.435	39.1437	39.2231	34.8965
10.1078	33.516	1.19241	38.3358	39.2126	39.2928	34.9743
10.9009	33.516	1.19241	36.4403	39.1809	39.29	34.9671
11.694	33.516	1.19241	31.3839	39.0943	39.3322	34.8634
12.4871	33.516	1.19241	21.4716	38.7595	39.2446	34.714
13.2802	33.516	1.19241	-45.585	37.6639	39.0567	34.4318
14.0733	33.516	1.19241	0	35.9496	38.6357	34.0548
14.8664	33.516	1.19241	0	34.0446	37.6565	33.3324
15.6596	33.516	1.19241	0	31.2876	35.2156	31.6727
16.4527	33.516	1.19241	0	23.3622	27.3985	24.7207
17.2458	33.516	1.19241	0	0	0	0
18.0389	33.516	1.19241	0	0	0	0
-4.9599	34.3047	1.20553	38.9998	0	0	0
-4.1668	34.3047	1.20553	39.3894	0	0	27.2301
-3.3737	34.3047	1.20553	39.746	0	0	28.4763
-2.58059	34.3047	1.20553	40.0572	0	29.019	29.3181
-1.78749	34.3047	1.20553	40.3048	0	31.7702	30.0136
-0.994385	34.3047	1.20553	40.4933	0	33.6436	30.6126
-0.201282	34.3047	1.20553	40.6556	30.223	34.8118	31.1478
0.591822	34.3047	1.20553	40.7597	32.6311	35.5516	31.6297
1.38493	34.3047	1.20553	40.8227	34.2858	36.1529	32.0806
2.17803	34.3047	1.20553	40.86	35.3323	36.6695	32.495
2.97113	34.3047	1.20553	40.8798	36.0292	37.1116	32.8799
3.76424	34.3047	1.20553	40.8833	36.6096	37.5208	33.2202
4.55734	34.3047	1.20553	40.8661	37.0993	37.9182	33.5464
5.35044	34.3047	1.20553	40.8183	37.5508	38.2892	33.7819
6.14355	34.3047	1.20553	40.7355	37.9572	38.5385	34.0705
6.93665	34.3047	1.20553	40.6238	38.3325	38.8383	34.2964
7.72975	34.3047	1.20553	40.4283	38.6447	38.9722	34.4979
8.52286	34.3047	1.20553	40.0542	38.9391	39.1119	34.6621
9.31596	34.3047	1.20553	39.3689	39.1144	39.1912	34.7967
10.1091	34.3047	1.20553	38.2515	39.1821	39.2604	34.8737
10.9022	34.3047	1.20553	36.3529	39.1495	39.258	34.8659
11.6953	34.3047	1.20553	31.2971	39.0626	39.3	34.7624
12.4884	34.3047	1.20553	21.1269	38.7283	39.2122	34.6137
13.2815	34.3047	1.20553	-47.5324	37.6335	39.0245	34.3325
14.0746	34.3047	1.20553	0	35.9194	38.6037	33.9562
14.8677	34.3047	1.20553	0	34.0145	37.6258	33.2348
15.6608	34.3047	1.20553	0	31.2575	35.1855	31.5761
16.4539	34.3047	1.20553	0	23.3321	27.3685	24.6249
17.247	34.3047	1.20553	0	0	0	0
18.0401	34.3047	1.20553	0	0	0	0
-4.95872	35.1119	1.21904	38.9597	0	0	0
-4.16561	35.1119	1.21904	39.3487	0	0	27.1399
-3.37251	35.1119	1.21904	39.7045	0	0	28.3859
-2.5794	35.1119	1.21904	40.0144	0	28.9953	29.2275
-1.7863	35.1119	1.21904	40.2602	0	31.7462	29.9227
-0.993198	35.1119	1.21904	40.4465	0	33.6184	30.5214
-0.200094	35.1119	1.21904	40.607	30.1992	34.7859	31.0562
0.593009	35.1119	1.21904	40.7097	32.6069	35.5251	31.5377
1.38611	35.1119	1.21904	40.7719	34.2603	36.1262	31.9882
2.17922	35.1119	1.21904	40.8089	35.3061	36.6426	32.4019
2.97232	35.1119	1.21904	40.8284	36.0027	37.0847	32.7862
3.76542	35.1119	1.21904	40.8318	36.5828	37.4937	33.1256
4.55853	35.1119	1.21904	40.8145	37.0725	37.8907	33.4508
5.35163	35.1119	1.21904	40.7664	37.5239	38.261	33.685
6.14473	35.1119	1.21904	40.6839	37.9301	38.5093	33.9726
6.93784	35.1119	1.21904	40.5715	38.305	38.8079	34.1972
7.73094	35.1119	1.21904	40.3742	38.6166	38.9406	34.3976
8.52404	35.1119	1.21904	39.9964	38.9098	39.0793	34.5606
9.31715	35.1119	1.21904	39.3018	39.0836	39.1577	34.6943
10.1103	35.1119	1.21904	38.1651	39.15	39.2264	34.7704
10.9034	35.1119	1.21904	36.2629	39.1166	39.2245	34.7621
11.6965	35.1119	1.21904	31.2078	39.0294	39.2663	34.6589
12.4896	35.1119	1.21904	20.7737	38.6955	39.1783	34.5108
13.2827	35.1119	1.21904	-49.5262	37.6015	38.9907	34.2305
14.0758	35.1119	1.21904	0	35.8876	38.5701	33.855
14.8689	35.1119	1.21904	0	33.9827	37.5935	33.1346
15.662	35.1119	1.21904	0	31.2258	35.1537	31.4768
16.4551	35.1119	1.21904	0	23.3004	27.3369	24.5265
17.2482	35.1119	1.21904	0	0	0	0
18.0413	35.1119	1.21904	0	0	0	0
-4.95771	35.9381	1.23477	38.9234	0	0	0
-4.16461	35.9381	1.23477	39.3119	0	0	27.0581
-3.37151	35.9381	1.23477	39.6669	0	0	28.304
-2.5784	35.9381	1.23477	39.9754	0	28.9747	29.1453
-1.7853	35.9381	1.23477	40.2191	0	31.7253	29.8401
-0.992197	35.9381	1.23477	40.4033	0	33.5965	30.4385
-0.199093	35.9381	1.23477	40.5619	30.1784	34.7634	30.9729
0.59401	35.9381	1.23477	40.6631	32.5858	35.5022	31.4541
1.38711	35.9381	1.23477	40.7245	34.2383	36.1032	31.9041
2.18022	35.9381	1.23477	40.7611	35.2834	36.6194	32.3172
2.97332	35.9381	1.23477	40.7804	35.9797	37.0614	32.7007
3.76642	35.9381	1.23477	40.7837	36.5597	37.4702	33.0392
4.55953	35.9381	1.23477	40.7663	37.0492	37.8667	33.3633
5.35263	35.9381	1.23477	40.7181	37.5005	38.2364	33.5962
6.14573	35.9381	1.23477	40.6357	37.9066	38.4837	33.8827
6.93884	35.9381	1.23477	40.5228	38.281	38.7809	34.106
7.73194	35.9381	1.23477	40.3237	38.5921	38.9123	34.3052
8.52504	35.9381	1.23477	39.9423	38.884	39.0499	34.467
9.31815	35.9381	1.23477	39.2384	39.0562	39.1275	34.5996
10.1113	35.9381	1.23477	38.0814	39.1212	39.1956	34.6748
10.9044	35.9381	1.23477	36.1752	39.0869	39.1942	34.6659
11.6975	35.9381	1.23477	31.1207	38.9993	39.2357	34.563
12.4906	35.9381	1.23477	20.4164	38.6657	39.1476	34.4156
13.2837	35.9381	1.23477	-51.5626	37.5724	38.9602	34.1363
14.0768	35.9381	1.23477	0	35.8587	38.5397	33.7615
14.8699	35.9381	1.23477	0	33.9539	37.5641	33.0422
15.663	35.9381	1.23477	0	31.197	35.1248	31.3854
16.4561	35.9381	1.23477	0	23.2716	27.3081	24.436
17.2492	35.9381	1.23477	0	0	0	0
18.0423	35.9381	1.23477	0	0	0	0
-4.95661	36.7838	1.24906	38.8802	0	0	0
-4.16351	36.7838	1.24906	39.2682	0	0	26.9621
-3.37041	36.7838	1.24906	39.6224	0	0	28.2079
-2.5773	36.7838	1.24906	39.9296	0	28.9474	29.0489
-1.7842	36.7838	1.24906	40.1714	0	31.6977	29.7435
-0.991095	36.7838	1.24906	40.3534	0	33.5679	30.3416
-0.197992	36.7838	1.24906	40.5102	30.151	34.734	30.8757
0.595111	36.7838	1.24906	40.6101	32.558	35.4724	31.3564
1.38821	36.7838	1.24906	40.6707	34.2094	36.0732	31.8059
2.18132	36.7838	1.24906	40.7068	35.2538	36.5892	32.2185
2.97442	36.7838	1.24906	40.726	35.9498	37.0311	32.6013
3.76753	36.7838	1.24906	40.7292	36.5296	37.4398	32.9388
4.56063	36.7838	1.24906	40.7117	37.019	37.8359	33.262
5.35373	36.7838	1.24906	40.6633	37.4702	38.2049	33.4936
6.14684	36.7838	1.24906	40.5812	37.8761	38.4511	33.779
6.93994	36.7838	1.24906	40.4677	38.2501	38.7472	34.0011
7.73304	36.7838	1.24906	40.2669	38.5606	38.8773	34.1991
8.52615	36.7838	1.24906	39.882	38.8513	39.0139	34.3598
9.31925	36.7838	1.24906	39.1691	39.022	39.0906	34.4914
10.1124	36.7838	1.24906	37.9905	39.0857	39.1583	34.5657
10.9055	36.7838	1.24906	36.0798	39.0505	39.1573	34.5563
11.6986	36.7838	1.24906	31.026	38.9626	39.1986	34.4537
12.4917	36.7838	1.24906	20.0451	38.6295	39.1104	34.307
13.2848	36.7838	1.24906	-53.6525	37.537	38.9231	34.0285
14.0779	36.7838	1.24906	0	35.8234	38.5028	33.6546
14.871	36.7838	1.24906	0	33.9186	37.5283	32.9363
15.6641	36.7838	1.24906	0	31.1617	35.0895	31.2804
16.4572	36.7838	1.24906	0	23.2364	27.2729	24.3319
17.2503	36.7838	1.24906	0	0	0	0
18.0434	36.7838	1.24906	0	0	0	0
-4.95569	37.6494	1.26557	38.8409	0	0	0
-4.16258	37.6494	1.26557	39.2284	0	0	26.8747
-3.36948	37.6494	1.26557	39.5817	0	0	28.1203
-2.57638	37.6494	1.26557	39.8875	0	28.9232	28.9611
-1.78327	37.6494	1.26557	40.1273	0	31.6734	29.6554
-0.990168	37.6494	1.26557	40.3071	0	33.5426	30.2531
-0.197065	37.6494	1.26557	40.462	30.1268	34.7081	30.7868
0.596039	37.6494	1.26557	40.5605	32.5335	35.4462	31.2671
1.38914	37.6494	1.26557	40.6203	34.1839	36.0468	31.7162
2.18225	37.6494	1.26557	40.6561	35.2278	36.5626	32.1282
2.97535	37.6494	1.26557	40.6751	35.9235	37.0045	32.5103
3.76845	37.6494	1.26557	40.6782	36.5031	37.4129	32.8468
4.56156	37.6494	1.26557	40.6605	36.9924	37.8087	33.1688
5.35466	37.6494	1.26557	40.612	37.4435	38.177	33.3992
6.14776	37.6494	1.26557	40.5302	37.8493	38.4221	33.6834
6.94087	37.6494	1.26557	40.4163	38.2228	38.7169	33.9042
7.73397	37.6494	1.26557	40.2137	38.5327	38.8456	34.101
8.52707	37.6494	1.26557	39.8255	38.8221	38.9811	34.2605
9.32018	37.6494	1.26557	39.1037	38.9913	39.0571	34.3911
10.1133	37.6494	1.26557	37.9025	39.0536	39.1243	34.4645
10.9064	37.6494	1.26557	35.9866	39.0175	39.1236	34.4545
11.6995	37.6494	1.26557	30.9335	38.9292	39.1648	34.3522
12.4926	37.6494	1.26557	19.6695	38.5964	39.0764	34.2062
13.2857	37.6494	1.26557	-55.7871	37.5044	38.8892	33.9286
14.0788	37.6494	1.26557	0	35.7911	38.4691	33.5554
14.8719	37.6494	1.26557	0	33.8863	37.4956	32.8382
15.665	37.6494	1.26557	0	31.1294	35.0572	31.1833
16.4581	37.6494	1.26557	0	23.2041	27.2407	24.2357
17.2512	37.6494	1.26557	0	0	0	0
18.0443	37.6494	1.26557	0	0	0	0
-4.95479	38.5353	1.28247	38.8	0	0	0
-4.16169	38.5353	1.28247	39.1869	0	0	26.7842
-3.36858	38.5353	1.28247	39.5394	0	0	28.0296
-2.57548	38.5353	1.28247	39.8437	0	28.8972	28.8701
-1.78238	38.5353	1.28247	40.0815	0	31.6471	29.5641
-0.989274	38.5353	1.28247	40.2592	0	33.5154	30.1615
-0.196171	38.5353	1.28247	40.4122	30.1007	34.6804	30.6949
0.596933	38.5353	1.28247	40.5093	32.5071	35.4181	31.1748
1.39004	38.5353	1.28247	40.5683	34.1565	36.0185	31.6234
2.18314	38.5353	1.28247	40.6037	35.1999	36.5342	32.0348
2.97624	38.5353	1.28247	40.6225	35.8953	36.976	32.4161
3.76935	38.5353	1.28247	40.6255	36.4748	37.3842	32.7516
4.56245	38.5353	1.28247	40.6078	36.964	37.7796	33.0726
5.35555	38.5353	1.28247	40.5592	37.415	38.1473	33.3016
6.14866	38.5353	1.28247	40.4776	37.8206	38.3913	33.5846
6.94176	38.5353	1.28247	40.3633	38.1937	38.6847	33.8042
7.73486	38.5353	1.28247	40.1591	38.5029	38.8121	33.9997
8.52797	38.5353	1.28247	39.7676	38.7911	38.9466	34.1581
9.32107	38.5353	1.28247	39.0371	38.9586	39.0217	34.2877
10.1142	38.5353	1.28247	37.8123	39.0196	39.0884	34.3601
10.9073	38.5353	1.28247	35.8904	38.9826	39.0882	34.3496
11.7004	38.5353	1.28247	30.8382	38.8939	39.1291	34.2476
12.4935	38.5353	1.28247	19.2844	38.5614	39.0405	34.1022
13.2866	38.5353	1.28247	-57.9727	37.47	38.8535	33.8256
14.0797	38.5353	1.28247	0	35.7568	38.4335	33.4532
14.8728	38.5353	1.28247	0	33.8521	37.4609	32.737
15.6659	38.5353	1.28247	0	31.0952	35.0229	31.083
16.459	38.5353	1.28247	0	23.17	27.2066	24.1364
17.2521	38.5353	1.28247	0	0	0	0
18.0452	38.5353	1.28247	0	0	0	0
-4.95381	39.4421	1.29796	38.7511	0	0	0
-4.16071	39.4421	1.29796	39.1375	0	0	26.6773
-3.3676	39.4421	1.29796	39.4891	0	0	27.9226
-2.5745	39.4421	1.29796	39.792	0	28.8632	28.7628
-1.7814	39.4421	1.29796	40.0279	0	31.6128	29.4565
-0.988292	39.4421	1.29796	40.2035	0	33.4802	30.0536
-0.195189	39.4421	1.29796	40.3547	30.0666	34.6446	30.5866
0.597914	39.4421	1.29796	40.4504	32.4727	35.3819	31.0661
1.39102	39.4421	1.29796	40.5086	34.1211	35.9822	31.5142
2.18412	39.4421	1.29796	40.5437	35.1638	36.4977	31.9251
2.97722	39.4421	1.29796	40.5624	35.8591	36.9394	32.3057
3.77033	39.4421	1.29796	40.5653	36.4383	37.3474	32.6402
4.56343	39.4421	1.29796	40.5475	36.9274	37.7424	32.9602
5.35654	39.4421	1.29796	40.4988	37.3784	38.1094	33.188
6.14964	39.4421	1.29796	40.4176	37.7837	38.3524	33.4698
6.94274	39.4421	1.29796	40.3028	38.1565	38.6446	33.6882
7.73585	39.4421	1.29796	40.0971	38.4651	38.7707	33.8826
8.52895	39.4421	1.29796	39.7025	38.7519	38.9042	34.0399
9.32205	39.4421	1.29796	38.9635	38.918	38.9785	34.1684
10.1152	39.4421	1.29796	37.714	38.9777	39.0448	34.24
10.9083	39.4421	1.29796	35.7854	38.9398	39.0449	34.229
11.7014	39.4421	1.29796	30.734	38.8509	39.0856	34.1273
12.4945	39.4421	1.29796	18.8836	38.5187	38.9969	33.9825
13.2876	39.4421	1.29796	-60.2163	37.428	38.81	33.7068
14.0807	39.4421	1.29796	0	35.715	38.3902	33.3351
14.8738	39.4421	1.29796	0	33.8102	37.4186	32.62
15.6669	39.4421	1.29796	0	31.0534	34.9811	30.9669
16.46	39.4421	1.29796	0	23.1282	27.1648	24.0212
17.2531	39.4421	1.29796	0	0	0	0
18.0462	39.4421	1.29796	0	0	0	0
-4.9531	40.3702	1.3175	38.7126	0	0	0
-4.16	40.3702	1.3175	39.0983	0	0	26.5923
-3.36689	40.3702	1.3175	39.4491	0	0	27.8374
-2.57379	40.3702	1.3175	39.7505	0	28.8386	28.6774
-1.78069	40.3702	1.3175	39.9843	0	31.588	29.3708
-0.987584	40.3702	1.3175	40.1576	0	33.4547	29.9676
-0.19448	40.3702	1.3175	40.3068	30.0419	34.6186	30.5002
0.598623	40.3702	1.3175	40.4011	32.4477	35.3556	30.9792
1.39173	40.3702	1.3175	40.4586	34.0954	35.9558	31.4269
2.18483	40.3702	1.3175	40.4933	35.1377	36.4711	31.8371
2.97793	40.3702	1.3175	40.5118	35.8327	36.9128	32.2169
3.77104	40.3702	1.3175	40.5146	36.4118	37.3206	32.5504
4.56414	40.3702	1.3175	40.4967	36.9008	37.7152	32.8692
5.35724	40.3702	1.3175	40.4479	37.3517	38.0815	33.0956
6.15035	40.3702	1.3175	40.3671	37.7569	38.3233	33.3762
6.94345	40.3702	1.3175	40.252	38.1292	38.6141	33.5933
7.73655	40.3702	1.3175	40.0448	38.4371	38.7387	33.7864
8.52966	40.3702	1.3175	39.6471	38.7226	38.8711	33.9424
9.32276	40.3702	1.3175	38.9	38.887	38.9447	34.0699
10.1159	40.3702	1.3175	37.6248	38.9452	39.0105	34.1405
10.909	40.3702	1.3175	35.6886	38.9064	39.0108	34.1289
11.7021	40.3702	1.3175	30.638	38.8171	39.0514	34.0275
12.4952	40.3702	1.3175	18.484	38.485	38.9626	33.8835
13.2883	40.3702	1.3175	-62.5021	37.3948	38.7757	33.6087
14.0814	40.3702	1.3175	0	35.6819	38.356	33.2378
14.8745	40.3702	1.3175	0	33.7772	37.3852	32.5237
15.6676	40.3702	1.3175	0	31.0204	34.948	30.8717
16.4607	40.3702	1.3175	0	23.0952	27.1318	23.927
17.2538	40.3702	1.3175	0	0	0	0
18.0469	40.3702	1.3175	0	0	0	0
-4.9523	41.3201	1.33564	38.6655	0	0	0
-4.1592	41.3201	1.33564	39.0507	0	0	26.49
-3.3661	41.3201	1.33564	39.4006	0	0	27.735
-2.57299	41.3201	1.33564	39.7006	0	28.8054	28.5746
-1.77989	41.3201	1.33564	39.9323	0	31.5546	29.2678
-0.986786	41.3201	1.33564	40.1035	0	33.4205	29.8642
-0.193682	41.3201	1.33564	40.2508	30.0087	34.5839	30.3965
0.599421	41.3201	1.33564	40.3437	32.4142	35.3206	30.8751
1.39252	41.3201	1.33564	40.4005	34.0611	35.9207	31.3223
2.18563	41.3201	1.33564	40.4348	35.1029	36.4359	31.7319
2.97873	41.3201	1.33564	40.4531	35.7977	36.8775	32.1109
3.77183	41.3201	1.33564	40.4559	36.3766	37.2851	32.4434
4.56494	41.3201	1.33564	40.4379	36.8655	37.6793	32.7611
5.35804	41.3201	1.33564	40.3891	37.3163	38.0449	32.9862
6.15115	41.3201	1.33564	40.3086	37.7213	38.2856	33.2656
6.94425	41.3201	1.33564	40.1932	38.0932	38.575	33.4814
7.73735	41.3201	1.33564	39.9845	38.4004	38.6983	33.6733
8.53046	41.3201	1.33564	39.584	38.6847	38.8296	33.8282
9.32356	41.3201	1.33564	38.8289	38.8475	38.9024	33.9546
10.1167	41.3201	1.33564	37.5271	38.9043	38.9678	34.0243
10.9098	41.3201	1.33564	35.5824	38.8646	38.9685	34.0122
11.7029	41.3201	1.33564	30.5327	38.7749	39.0088	33.911
12.496	41.3201	1.33564	18.0678	38.4431	38.9199	33.7677
13.2891	41.3201	1.33564	-64.8489	37.3534	38.7331	33.4938
14.0822	41.3201	1.33564	0	35.6406	38.3136	33.1236
14.8753	41.3201	1.33564	0	33.7359	37.3436	32.4107
15.6684	41.3201	1.33564	0	30.9792	34.9067	30.7596
16.4615	41.3201	1.33564	0	23.054	27.0907	23.8158
17.2546	41.3201	1.33564	0	0	0	0
18.0477	41.3201	1.33564	0	0	0	0
-4.95154	42.2924	1.3542	38.6159	0	0	0
-4.15843	42.2924	1.3542	39.0005	0	0	26.3826
-3.36533	42.2924	1.3542	39.3494	0	0	27.6274
-2.57223	42.2924	1.3542	39.6479	0	28.7692	28.4668
-1.77912	42.2924	1.3542	39.8776	0	31.5183	29.1597
-0.986019	42.2924	1.3542	40.0467	0	33.3834	29.7558
-0.192916	42.2924	1.3542	40.1921	29.9724	34.5463	30.2877
0.600188	42.2924	1.3542	40.2837	32.3777	35.2827	30.7659
1.39329	42.2924	1.3542	40.3397	34.0238	35.8826	31.2126
2.18639	42.2924	1.3542	40.3737	35.0651	36.3977	31.6216
2.9795	42.2924	1.3542	40.3919	35.7597	36.8392	31.9999
3.7726	42.2924	1.3542	40.3946	36.3385	37.2466	32.3314
4.56571	42.2924	1.3542	40.3765	36.8273	37.6404	32.6479
5.35881	42.2924	1.3542	40.3276	37.278	38.0054	32.8716
6.15191	42.2924	1.3542	40.2475	37.6829	38.2449	33.1499
6.94502	42.2924	1.3542	40.1318	38.0543	38.533	33.3644
7.73812	42.2924	1.3542	39.9217	38.3608	38.6549	33.555
8.53122	42.2924	1.3542	39.5184	38.6438	38.7852	33.7088
9.32433	42.2924	1.3542	38.7559	38.8049	38.8573	33.8342
10.1174	42.2924	1.3542	37.4266	38.8604	38.9222	33.903
10.9105	42.2924	1.3542	35.4721	38.8199	38.9231	33.8903
11.7036	42.2924	1.3542	30.4233	38.7298	38.9633	33.7895
12.4967	42.2924	1.3542	17.6403	38.3982	38.8743	33.6468
13.2898	42.2924	1.3542	-67.2523	37.309	38.6876	33.3738
14.0829	42.2924	1.3542	0	35.5964	38.2682	33.0044
14.876	42.2924	1.3542	0	33.6917	37.299	32.2925
15.6692	42.2924	1.3542	0	30.935	34.8625	30.6423
16.4623	42.2924	1.3542	0	23.0098	27.0465	23.6996
17.2554	42.2924	1.3542	0	0	0	0
18.0485	42.2924	1.3542	0	0	0	0
-4.9509	43.2876	1.37502	38.5707	0	0	0
-4.1578	43.2876	1.37502	38.9548	0	0	26.2848
-3.3647	43.2876	1.37502	39.3028	0	0	27.5295
-2.57159	43.2876	1.37502	39.5997	0	28.7369	28.3687
-1.77849	43.2876	1.37502	39.8273	0	31.4857	29.0613
-0.985386	43.2876	1.37502	39.9941	0	33.3502	29.657
-0.192283	43.2876	1.37502	40.1376	29.94	34.5127	30.1885
0.600821	43.2876	1.37502	40.2278	32.345	35.2489	30.6662
1.39392	43.2876	1.37502	40.2831	33.9905	35.8487	31.1125
2.18703	43.2876	1.37502	40.3167	35.0314	36.3636	31.5208
2.98013	43.2876	1.37502	40.3348	35.7258	36.8051	31.8983
3.77323	43.2876	1.37502	40.3373	36.3045	37.2123	32.2287
4.56634	43.2876	1.37502	40.3192	36.7932	37.6057	32.5441
5.35944	43.2876	1.37502	40.2702	37.2439	37.97	32.7664
6.15255	43.2876	1.37502	40.1906	37.6485	38.2083	33.0435
6.94565	43.2876	1.37502	40.0746	38.0195	38.495	33.2566
7.73875	43.2876	1.37502	39.8632	38.3252	38.6153	33.446
8.53186	43.2876	1.37502	39.4573	38.6069	38.7446	33.5985
9.32496	43.2876	1.37502	38.6876	38.7663	38.8159	33.7228
10.1181	43.2876	1.37502	37.3301	38.8203	38.8804	33.7907
10.9112	43.2876	1.37502	35.3645	38.7789	38.8815	33.7774
11.7043	43.2876	1.37502	30.3167	38.6884	38.9216	33.6769
12.4974	43.2876	1.37502	17.2081	38.357	38.8324	33.5349
13.2905	43.2876	1.37502	-69.7071	37.2681	38.6458	33.2629
14.0836	43.2876	1.37502	0	35.5556	38.2265	32.8942
14.8767	43.2876	1.37502	0	33.651	37.258	32.1834
15.6698	43.2876	1.37502	0	30.8943	34.8217	30.5342
16.4629	43.2876	1.37502	0	22.9691	27.0058	23.5924
17.256	43.2876	1.37502	0	0	0	0
18.0491	43.2876	1.37502	0	0	0	0
-4.95029	44.3062	1.39629	38.523	0	0	0
-4.15719	44.3062	1.39629	38.9065	0	0	26.182
-3.36409	44.3062	1.39629	39.2535	0	0	27.4265
-2.57098	44.3062	1.39629	39.5489	0	28.7014	28.2654
-1.77788	44.3062	1.39629	39.7743	0	31.4501	28.9577
-0.984775	44.3062	1.39629	39.9389	0	33.314	29.5531
-0.191671	44.3062	1.39629	40.0805	29.9045	34.4761	30.0843
0.601432	44.3062	1.39629	40.1694	32.3093	35.212	30.5615
1.39454	44.3062	1.39629	40.2239	33.9542	35.8117	31.0073
2.18764	44.3062	1.39629	40.2571	34.9946	36.3265	31.415
2.98074	44.3062	1.39629	40.275	35.6889	36.7679	31.7916
3.77385	44.3062	1.39629	40.2775	36.2675	37.1749	32.121
4.56695	44.3062	1.39629	40.2593	36.7561	37.5679	32.4352
5.36005	44.3062	1.39629	40.2103	37.2066	37.9315	32.6561
6.15316	44.3062	1.39629	40.1311	37.6111	38.1686	32.9319
6.94626	44.3062	1.39629	40.0149	37.9816	38.4539	33.1436
7.73936	44.3062	1.39629	39.8021	38.2866	38.5727	33.3318
8.53247	44.3062	1.39629	39.3937	38.5669	38.7009	33.4831
9.32557	44.3062	1.39629	38.6172	38.7246	38.7715	33.6063
10.1187	44.3062	1.39629	37.2309	38.7772	38.8356	33.6733
10.9118	44.3062	1.39629	35.2529	38.7348	38.8369	33.6595
11.7049	44.3062	1.39629	30.2061	38.644	38.8768	33.5593
12.498	44.3062	1.39629	16.7641	38.3127	38.7875	33.4179
13.2911	44.3062	1.39629	-72.2211	37.2242	38.601	33.1468
14.0842	44.3062	1.39629	0	35.5118	38.1818	32.7789
14.8773	44.3062	1.39629	0	33.6072	37.2139	32.0691
15.6704	44.3062	1.39629	0	30.8505	34.7779	30.421
16.4635	44.3062	1.39629	0	22.9254	26.9621	23.4802
17.2566	44.3062	1.39629	0	0	0	0
18.0497	44.3062	1.39629	0	0	0	0
-4.9497	45.3488	1.41802	38.4723	0	0	0
-4.1566	45.3488	1.41802	38.8551	0	0	26.0732
-3.3635	45.3488	1.41802	39.2012	0	0	27.3176
-2.57039	45.3488	1.41802	39.495	0	28.6623	28.1562
-1.77729	45.3488	1.41802	39.7182	0	31.4108	28.8483
-0.984185	45.3488	1.41802	39.8807	0	33.2742	29.4433
-0.191082	45.3488	1.41802	40.0203	29.8653	34.4359	29.9741
0.602022	45.3488	1.41802	40.1079	32.2699	35.1716	30.4509
1.39513	45.3488	1.41802	40.1616	33.9142	35.7712	30.8962
2.18823	45.3488	1.41802	40.1946	34.9543	36.2859	31.3032
2.98133	45.3488	1.41802	40.2123	35.6484	36.7272	31.6791
3.77444	45.3488	1.41802	40.2148	36.2269	37.134	32.0073
4.56754	45.3488	1.41802	40.1965	36.7154	37.5266	32.3203
5.36064	45.3488	1.41802	40.1473	37.1659	37.8894	32.5398
6.15375	45.3488	1.41802	40.0687	37.5701	38.1253	32.8143
6.94685	45.3488	1.41802	39.9522	37.9402	38.4092	33.0248
7.73995	45.3488	1.41802	39.7381	38.2444	38.5265	33.2116
8.53306	45.3488	1.41802	39.3274	38.5234	38.6537	33.3617
9.32616	45.3488	1.41802	38.5444	38.6794	38.7235	33.4839
10.1193	45.3488	1.41802	37.1289	38.7305	38.7872	33.55
10.9124	45.3488	1.41802	35.1368	38.6872	38.7887	33.5356
11.7055	45.3488	1.41802	30.0909	38.596	38.8284	33.4357
12.4986	45.3488	1.41802	16.3079	38.2649	38.739	33.295
13.2917	45.3488	1.41802	-74.7962	37.1767	38.5526	33.0248
14.0848	45.3488	1.41802	0	35.4644	38.1335	32.6576
14.8779	45.3488	1.41802	0	33.5598	37.1662	31.9489
15.671	45.3488	1.41802	0	30.8031	34.7305	30.3018
16.4641	45.3488	1.41802	0	22.878	26.9148	23.3621
17.2572	45.3488	1.41802	0	0	0	0
18.0503	45.3488	1.41802	0	0	0	0
-4.94923	46.4159	1.44207	38.4271	0	0	0
-4.15612	46.4159	1.44207	38.8093	0	0	25.976
-3.36302	46.4159	1.44207	39.1543	0	0	27.2202
-2.56992	46.4159	1.44207	39.4464	0	28.6278	28.0586
-1.77681	46.4159	1.44207	39.6675	0	31.3761	28.7503
-0.98371	46.4159	1.44207	39.8277	0	33.239	29.3451
-0.190606	46.4159	1.44207	39.9653	29.8307	34.4004	29.8754
0.602497	46.4159	1.44207	40.0515	32.2352	35.1359	30.3518
1.3956	46.4159	1.44207	40.1046	33.879	35.7354	30.7965
2.1887	46.4159	1.44207	40.1371	34.9188	36.25	31.2029
2.98181	46.4159	1.44207	40.1547	35.6127	36.6913	31.5779
3.77491	46.4159	1.44207	40.1571	36.1911	37.0979	31.905
4.56801	46.4159	1.44207	40.1387	36.6795	37.4901	32.2167
5.36112	46.4159	1.44207	40.0895	37.1299	37.8522	32.4347
6.15422	46.4159	1.44207	40.0113	37.5339	38.0867	32.7079
6.94732	46.4159	1.44207	39.8946	37.9035	38.3691	32.917
7.74043	46.4159	1.44207	39.6793	38.207	38.4848	33.1025
8.53353	46.4159	1.44207	39.2662	38.4845	38.6109	33.2514
9.32663	46.4159	1.44207	38.4773	38.6387	38.68	33.3724
10.1197	46.4159	1.44207	37.0322	38.6883	38.7433	33.4375
10.9128	46.4159	1.44207	35.0242	38.644	38.7449	33.4225
11.7059	46.4159	1.44207	29.9794	38.5524	38.7845	33.3229
12.499	46.4159	1.44207	15.8471	38.2213	38.695	33.1829
13.2922	46.4159	1.44207	-77.4256	37.1335	38.5087	32.9137
14.0853	46.4159	1.44207	0	35.4212	38.0896	32.5473
14.8784	46.4159	1.44207	0	33.5167	37.1228	31.8397
15.6715	46.4159	1.44207	0	30.76	34.6874	30.1936
16.4646	46.4159	1.44207	0	22.8349	26.8717	23.2549
17.2577	46.4159	1.44207	0	0	0	0
18.0508	46.4159	1.44207	0	0	0	0
-4.94868	47.5081	1.46475	38.3693	0	0	0
-4.15557	47.5081	1.46475	38.7509	0	0	25.8534
-3.36247	47.5081	1.46475	39.0949	0	0	27.0975
-2.56937	47.5081	1.46475	39.3854	0	28.58	27.9356
-1.77626	47.5081	1.46475	39.6043	0	31.3282	28.627
-0.983159	47.5081	1.46475	39.7624	0	33.1906	29.2214
-0.190055	47.5081	1.46475	39.8981	29.7829	34.3516	29.7514
0.603048	47.5081	1.46475	39.983	32.1872	35.0869	30.2273
1.39615	47.5081	1.46475	40.0353	33.8304	35.6863	30.6715
2.18925	47.5081	1.46475	40.0676	34.8699	36.2008	31.0772
2.98236	47.5081	1.46475	40.085	35.5637	36.642	31.4514
3.77546	47.5081	1.46475	40.0872	36.1419	37.0484	31.7774
4.56857	47.5081	1.46475	40.0688	36.6303	37.4402	32.088
5.36167	47.5081	1.46475	40.0195	37.0806	37.8015	32.3045
6.15477	47.5081	1.46475	39.9418	37.4844	38.0349	32.5765
6.94788	47.5081	1.46475	39.8249	37.8535	38.3158	32.7842
7.74098	47.5081	1.46475	39.6084	38.1562	38.43	32.9685
8.53408	47.5081	1.46475	39.1932	38.4324	38.5551	33.1161
9.32719	47.5081	1.46475	38.3986	38.5848	38.6234	33.2361
10.1203	47.5081	1.46475	36.9238	38.633	38.6864	33.3003
10.9134	47.5081	1.46475	34.8979	38.5878	38.6882	33.2848
11.7065	47.5081	1.46475	29.8542	38.4958	38.7276	33.1855
12.4996	47.5081	1.46475	15.3645	38.1649	38.638	33.0461
13.2927	47.5081	1.46475	-80.1279	37.0774	38.4517	32.7778
14.0858	47.5081	1.46475	0	35.3652	38.0327	32.4121
14.8789	47.5081	1.46475	0	33.4607	37.0665	31.7056
15.672	47.5081	1.46475	0	30.704	34.6313	30.0605
16.4651	47.5081	1.46475	0	22.7789	26.8157	23.1229
17.2582	47.5081	1.46475	0	0	0	0
18.0513	47.5081	1.46475	0	0	0	0
-4.94823	48.626	1.48979	38.3171	0	0	0
-4.15513	48.626	1.48979	38.698	0	0	25.7424
-3.36203	48.626	1.48979	39.041	0	0	26.9863
-2.56892	48.626	1.48979	39.3298	0	28.5362	27.8242
-1.77582	48.626	1.48979	39.5464	0	31.2843	28.5153
-0.982715	48.626	1.48979	39.7024	0	33.1462	29.1093
-0.189612	48.626	1.48979	39.8361	29.7391	34.307	29.6389
0.603491	48.626	1.48979	39.9196	32.1432	35.0421	30.1144
1.39659	48.626	1.48979	39.9713	33.786	35.6414	30.5581
2.1897	48.626	1.48979	40.0032	34.8251	36.1558	30.9631
2.9828	48.626	1.48979	40.0205	35.5188	36.5969	31.3364
3.77591	48.626	1.48979	40.0226	36.097	37.0031	31.6612
4.56901	48.626	1.48979	40.004	36.5852	37.3944	31.9705
5.36211	48.626	1.48979	39.9547	37.0354	37.755	32.1856
6.15522	48.626	1.48979	39.8774	37.439	37.9871	32.4562
6.94832	48.626	1.48979	39.7603	37.8077	38.2665	32.6625
7.74142	48.626	1.48979	39.5426	38.1095	38.3792	32.8455
8.53453	48.626	1.48979	39.1254	38.3843	38.5031	32.9919
9.32763	48.626	1.48979	38.3255	38.5349	38.5707	33.1108
10.1207	48.626	1.48979	36.8211	38.5816	38.6333	33.174
10.9138	48.626	1.48979	34.7752	38.5355	38.6352	33.1579
11.7069	48.626	1.48979	29.7325	38.4431	38.6745	33.059
12.5	48.626	1.48979	14.8771	38.1122	38.5848	32.9203
13.2931	48.626	1.48979	-82.8872	37.0249	38.3986	32.6528
14.0863	48.626	1.48979	0	35.3128	37.9797	32.2879
14.8794	48.626	1.48979	0	33.4083	37.0139	31.5825
15.6725	48.626	1.48979	0	30.6516	34.5789	29.9384
16.4656	48.626	1.48979	0	22.7266	26.7633	23.0019
17.2587	48.626	1.48979	0	0	0	0
18.0518	48.626	1.48979	0	0	0	0
-4.9478	49.7702	1.51534	38.2607	0	0	0
-4.1547	49.7702	1.51534	38.641	0	0	25.6232
-3.3616	49.7702	1.51534	38.9828	0	0	26.8669
-2.56849	49.7702	1.51534	39.2699	0	28.4856	27.7045
-1.77539	49.7702	1.51534	39.4843	0	31.2336	28.3953
-0.982286	49.7702	1.51534	39.6381	0	33.095	28.989
-0.189183	49.7702	1.51534	39.7699	29.6884	34.2555	29.5182
0.603921	49.7702	1.51534	39.8521	32.0923	34.9904	29.9931
1.39702	49.7702	1.51534	39.9031	33.7347	35.5897	30.4363
2.19013	49.7702	1.51534	39.9346	34.7736	36.104	30.8406
2.98323	49.7702	1.51534	39.9517	35.4671	36.545	31.213
3.77633	49.7702	1.51534	39.9538	36.0452	36.951	31.5367
4.56944	49.7702	1.51534	39.9351	36.5334	37.3419	31.8448
5.36254	49.7702	1.51534	39.8856	36.9835	37.7018	32.0583
6.15564	49.7702	1.51534	39.8088	37.3869	37.9325	32.3277
6.94875	49.7702	1.51534	39.6916	37.7551	38.2104	32.5326
7.74185	49.7702	1.51534	39.4727	38.056	38.3214	32.7143
8.53496	49.7702	1.51534	39.0535	38.3294	38.4443	32.8594
9.32806	49.7702	1.51534	38.2488	38.4782	38.5112	32.9772
10.1212	49.7702	1.51534	36.715	38.5233	38.5734	33.0395
10.9143	49.7702	1.51534	34.6467	38.4763	38.5754	33.0228
11.7074	49.7702	1.51534	29.6051	38.3835	38.6146	32.9242
12.5005	49.7702	1.51534	14.3752	38.0526	38.5248	32.7862
13.2936	49.7702	1.51534	-85.7145	36.9656	38.3387	32.5196
14.0867	49.7702	1.51534	0	35.2536	37.9198	32.1554
14.8798	49.7702	1.51534	0	33.3491	36.9545	31.4511
15.6729	49.7702	1.51534	0	30.5924	34.5197	29.808
16.466	49.7702	1.51534	0	22.6674	26.7042	22.8727
17.2591	49.7702	1.51534	0	0	0	0
18.0522	49.7702	1.51534	0	0	0	0
-4.94739	50.9414	1.54143	38.1992	0	0	0
-4.15428	50.9414	1.54143	38.5788	0	0	25.4939
-3.36118	50.9414	1.54143	38.9196	0	0	26.7375
-2.56808	50.9414	1.54143	39.2049	0	28.4268	27.5747
-1.77497	50.9414	1.54143	39.4171	0	31.1746	28.2652
-0.981871	50.9414	1.54143	39.5688	0	33.0357	28.8586
-0.188767	50.9414	1.54143	39.6986	29.6296	34.1959	29.3874
0.604336	50.9414	1.54143	39.7796	32.0333	34.9307	29.8619
1.39744	50.9414	1.54143	39.8298	33.6753	35.5298	30.3045
2.19054	50.9414	1.54143	39.861	34.7139	36.044	30.7081
2.98365	50.9414	1.54143	39.878	35.4073	36.485	31.0796
3.77675	50.9414	1.54143	39.8799	35.9853	36.8907	31.4021
4.56985	50.9414	1.54143	39.861	36.4734	37.2813	31.7089
5.36296	50.9414	1.54143	39.8115	36.9234	37.6403	31.921
6.15606	50.9414	1.54143	39.7351	37.3266	37.8697	32.189
6.94916	50.9414	1.54143	39.6177	37.6943	38.1461	32.3925
7.74227	50.9414	1.54143	39.3977	37.9944	38.2556	32.5729
8.53537	50.9414	1.54143	38.9766	38.2663	38.3774	32.7169
9.32847	50.9414	1.54143	38.1674	38.4133	38.4436	32.8335
10.1216	50.9414	1.54143	36.6048	38.457	38.5055	32.8948
10.9147	50.9414	1.54143	34.5114	38.409	38.5075	32.8777
11.7078	50.9414	1.54143	29.471	38.3158	38.5466	32.7793
12.5009	50.9414	1.54143	13.8578	37.985	38.4567	32.642
13.294	50.9414	1.54143	-88.612	36.8982	38.2706	32.3762
14.0871	50.9414	1.54143	0	35.1862	37.8518	32.0128
14.8802	50.9414	1.54143	0	33.2817	36.887	31.3096
15.6733	50.9414	1.54143	0	30.5251	34.4523	29.6676
16.4664	50.9414	1.54143	0	22.6001	26.6369	22.7333
17.2595	50.9414	1.54143	0	0	0	0
18.0526	50.9414	1.54143	0	0	0	0
-4.94707	52.1401	1.56998	38.1451	0	0	0
-4.15396	52.1401	1.56998	38.524	0	0	25.3797
-3.36086	52.1401	1.56998	38.8636	0	0	26.6231
-2.56776	52.1401	1.56998	39.1471	0	28.3787	27.4601
-1.77465	52.1401	1.56998	39.3569	0	31.1265	28.1503
-0.981548	52.1401	1.56998	39.5064	0	32.9872	28.7432
-0.188445	52.1401	1.56998	39.6343	29.5815	34.1473	29.2716
0.604659	52.1401	1.56998	39.714	31.9851	34.8819	29.7456
1.39776	52.1401	1.56998	39.7635	33.6268	35.481	30.1877
2.19087	52.1401	1.56998	39.7944	34.6652	35.9951	30.5906
2.98397	52.1401	1.56998	39.8111	35.3585	36.4359	30.9612
3.77707	52.1401	1.56998	39.8129	35.9364	36.8415	31.2824
4.57018	52.1401	1.56998	39.7939	36.4245	37.2316	31.5879
5.36328	52.1401	1.56998	39.7443	36.8744	37.5899	31.7984
6.15638	52.1401	1.56998	39.6683	37.2773	37.8179	32.065
6.94949	52.1401	1.56998	39.5507	37.6445	38.0927	32.2671
7.74259	52.1401	1.56998	39.3296	37.9437	38.2004	32.4461
8.53569	52.1401	1.56998	38.9067	38.2141	38.3211	32.5888
9.3288	52.1401	1.56998	38.0934	38.3591	38.3866	32.7044
10.1219	52.1401	1.56998	36.5027	38.4012	38.4481	32.7647
10.915	52.1401	1.56998	34.3814	38.3523	38.4503	32.7469
11.7081	52.1401	1.56998	29.3421	38.2587	38.4892	32.6489
12.5012	52.1401	1.56998	13.3366	37.9279	38.3993	32.5122
13.2943	52.1401	1.56998	-91.5692	36.8412	38.2132	32.2474
14.0874	52.1401	1.56998	0	35.1293	37.7944	31.8847
14.8805	52.1401	1.56998	0	33.2248	36.8299	31.1826
15.6736	52.1401	1.56998	0	30.4682	34.3954	29.5416
16.4667	52.1401	1.56998	0	22.5432	26.58	22.6085
17.2598	52.1401	1.56998	0	0	0	0
18.0529	52.1401	1.56998	0	0	0	0
-4.94667	53.367	1.59717	38.0709	0	0	0
-4.15357	53.367	1.59717	38.4491	0	0	25.2252
-3.36047	53.367	1.59717	38.7876	0	0	26.4684
-2.56736	53.367	1.59717	39.0694	0	28.312	27.3051
-1.77426	53.367	1.59717	39.2769	0	31.0597	27.995
-0.981157	53.367	1.59717	39.4243	0	32.92	28.5876
-0.188054	53.367	1.59717	39.5503	29.5147	34.0798	29.1156
0.60505	53.367	1.59717	39.6287	31.9182	34.8142	29.5891
1.39815	53.367	1.59717	39.6776	33.5595	35.4133	30.0307
2.19126	53.367	1.59717	39.7081	34.5976	35.9273	30.4329
2.98436	53.367	1.59717	39.7247	35.2908	36.368	30.8025
3.77746	53.367	1.59717	39.7263	35.8687	36.7734	31.1226
4.57057	53.367	1.59717	39.7072	36.3566	37.1631	31.4267
5.36367	53.367	1.59717	39.6574	36.8064	37.5205	31.6358
6.15677	53.367	1.59717	39.5819	37.2092	37.7472	31.9011
6.94988	53.367	1.59717	39.4641	37.5759	38.0205	32.1018
7.74298	53.367	1.59717	39.2419	37.8741	38.1266	32.2795
8.53608	53.367	1.59717	38.8172	38.1431	38.2463	32.421
9.32919	53.367	1.59717	38.0001	38.2863	38.3111	32.5354
10.1223	53.367	1.59717	36.3821	38.3269	38.3723	32.5948
10.9154	53.367	1.59717	34.2299	38.2771	38.3745	32.5765
11.7085	53.367	1.59717	29.1918	38.1831	38.4133	32.4789
12.5016	53.367	1.59717	12.7849	37.8523	38.3233	32.3428
13.2947	53.367	1.59717	-94.6144	36.7659	38.1372	32.0788
14.0878	53.367	1.59717	0	35.054	37.7186	31.7169
14.8809	53.367	1.59717	0	33.1496	36.7545	31.0158
15.674	53.367	1.59717	0	30.3929	34.3202	29.3759
16.4671	53.367	1.59717	0	22.468	26.5048	22.4439
17.2602	53.367	1.59717	0	0	0	0
18.0533	53.367	1.59717	0	0	0	0
-4.94645	54.6228	1.62884	38.0207	0	0	0
-4.15334	54.6228	1.62884	38.3981	0	0	25.1192
-3.36024	54.6228	1.62884	38.7355	0	0	26.3623
-2.56714	54.6228	1.62884	39.0152	0	28.2693	27.1987
-1.77403	54.6228	1.62884	39.2203	0	31.0169	27.8882
-0.980929	54.6228	1.62884	39.3656	0	32.877	28.4805
-0.187826	54.6228	1.62884	39.4895	29.472	34.0367	29.008
0.605278	54.6228	1.62884	39.5667	31.8754	34.771	29.481
1.39838	54.6228	1.62884	39.6148	33.5165	35.37	29.922
2.19148	54.6228	1.62884	39.645	34.5544	35.8839	30.3234
2.98459	54.6228	1.62884	39.6614	35.2476	36.3246	30.6921
3.77769	54.6228	1.62884	39.6629	35.8253	36.7297	31.0109
4.57079	54.6228	1.62884	39.6436	36.3132	37.1189	31.3136
5.3639	54.6228	1.62884	39.5936	36.763	37.4756	31.521
6.157	54.6228	1.62884	39.5185	37.1654	37.7007	31.7849
6.95011	54.6228	1.62884	39.4005	37.5316	37.9723	31.9841
7.74321	54.6228	1.62884	39.1773	37.8289	38.0767	32.1604
8.53631	54.6228	1.62884	38.7509	38.0962	38.1952	32.3006
9.32942	54.6228	1.62884	37.9302	38.2375	38.2594	32.4139
10.1225	54.6228	1.62884	36.2862	38.2764	38.3202	32.4722
10.9156	54.6228	1.62884	34.0998	38.2256	38.3224	32.4534
11.7087	54.6228	1.62884	29.0629	38.1312	38.3611	32.356
12.5018	54.6228	1.62884	12.245	37.8003	38.2711	32.2206
13.2949	54.6228	1.62884	-97.7064	36.714	38.085	31.9575
14.088	54.6228	1.62884	0	35.0022	37.6664	31.5964
14.8811	54.6228	1.62884	0	33.0977	36.7025	30.8964
15.6742	54.6228	1.62884	0	30.3411	34.2683	29.2576
16.4673	54.6228	1.62884	0	22.4161	26.4529	22.3269
17.2605	54.6228	1.62884	0	0	0	0
18.0536	54.6228	1.62884	0	0	0	0
-4.94615	55.9081	1.65919	37.9475	0	0	0
-4.15305	55.9081	1.65919	38.3242	0	0	24.9671
-3.35994	55.9081	1.65919	38.6603	0	0	26.2099
-2.56684	55.9081	1.65919	38.9382	0	28.2043	27.0461
-1.77374	55.9081	1.65919	39.1409	0	30.9518	27.7353
-0.980633	55.9081	1.65919	39.2841	0	32.8116	28.3272
-0.187529	55.9081	1.65919	39.4061	29.4069	33.9711	28.8543
0.605574	55.9081	1.65919	39.482	31.8103	34.7053	29.3268
1.39868	55.9081	1.65919	39.5295	33.451	35.3042	29.7673
2.19178	55.9081	1.65919	39.5593	34.4888	35.8181	30.1679
2.98488	55.9081	1.65919	39.5755	35.1819	36.2587	30.5356
3.77799	55.9081	1.65919	39.5769	35.7595	36.6636	30.8531
4.57109	55.9081	1.65919	39.5574	36.2474	37.0523	31.1545
5.36419	55.9081	1.65919	39.5073	36.697	37.4081	31.3603
6.1573	55.9081	1.65919	39.4325	37.0992	37.6319	31.6228
6.9504	55.9081	1.65919	39.3143	37.4649	37.9018	31.8206
7.74351	55.9081	1.65919	39.09	37.7612	38.0046	31.9956
8.53661	55.9081	1.65919	38.6619	38.027	38.122	32.1345
9.32971	55.9081	1.65919	37.838	38.1663	38.1855	32.2467
10.1228	55.9081	1.65919	36.1692	38.2037	38.2459	32.3041
10.9159	55.9081	1.65919	33.9453	38.152	38.2482	32.2847
11.709	55.9081	1.65919	28.9096	38.0572	38.2867	32.1876
12.5021	55.9081	1.65919	11.6711	37.7263	38.1967	32.0529
13.2952	55.9081	1.65919	-100.892	36.6401	38.0107	31.7907
14.0883	55.9081	1.65919	0	34.9283	37.5921	31.4302
14.8814	55.9081	1.65919	0	33.0239	36.6285	30.7314
15.6745	55.9081	1.65919	0	30.2672	34.1945	29.0936
16.4676	55.9081	1.65919	0	22.3423	26.3791	22.1641
17.2607	55.9081	1.65919	0	0	0	0
18.0539	55.9081	1.65919	0	0	0	0
-4.94593	57.2237	1.69217	37.8852	0	0	0
-4.15283	57.2237	1.69217	38.2611	0	0	24.837
-3.35973	57.2237	1.69217	38.5959	0	0	26.0797
-2.56662	57.2237	1.69217	38.8718	0	28.1502	26.9155
-1.77352	57.2237	1.69217	39.0721	0	30.8977	27.6044
-0.980416	57.2237	1.69217	39.2132	0	32.7573	28.1959
-0.187312	57.2237	1.69217	39.3332	29.3528	33.9166	28.7226
0.605791	57.2237	1.69217	39.4079	31.7561	34.6507	29.1946
1.39889	57.2237	1.69217	39.4547	33.3966	35.2496	29.6345
2.192	57.2237	1.69217	39.4842	34.4342	35.7633	30.0343
2.9851	57.2237	1.69217	39.5002	35.1272	36.2038	30.401
3.77821	57.2237	1.69217	39.5013	35.7049	36.6085	30.7172
4.57131	57.2237	1.69217	39.4816	36.1926	36.9968	31.0172
5.36441	57.2237	1.69217	39.4313	36.6421	37.3518	31.2213
6.15752	57.2237	1.69217	39.3569	37.0441	37.574	31.4824
6.95062	57.2237	1.69217	39.2385	37.4092	37.8423	31.6787
7.74372	57.2237	1.69217	39.0131	37.7045	37.9432	31.8523
8.53683	57.2237	1.69217	38.5834	37.9687	38.0595	31.99
9.32993	57.2237	1.69217	37.7566	38.106	38.1224	32.101
10.123	57.2237	1.69217	36.0643	38.1418	38.1825	32.1574
10.9161	57.2237	1.69217	33.7994	38.0891	38.1847	32.1374
11.7092	57.2237	1.69217	28.7649	37.9939	38.2232	32.0407
12.5023	57.2237	1.69217	11.0959	37.6629	38.133	31.9066
13.2954	57.2237	1.69217	-104.141	36.5768	37.9471	31.6452
14.0885	57.2237	1.69217	0	34.8651	37.5285	31.2855
14.8817	57.2237	1.69217	0	32.9606	36.5652	30.5878
15.6748	57.2237	1.69217	0	30.204	34.1312	28.9512
16.4679	57.2237	1.69217	0	22.2791	26.3159	22.0229
17.261	57.2237	1.69217	0	0	0	0
18.0541	57.2237	1.69217	0	0	0	0
-4.94565	58.5702	1.72381	37.7909	0	0	0
-4.15255	58.5702	1.72381	38.166	0	0	24.6429
-3.35944	58.5702	1.72381	38.4996	0	0	25.8854
-2.56634	58.5702	1.72381	38.7736	0	28.0646	26.7209
-1.77324	58.5702	1.72381	38.9715	0	30.812	27.4095
-0.980134	58.5702	1.72381	39.1106	0	32.6713	28.0006
-0.18703	58.5702	1.72381	39.2287	29.2672	33.8305	28.5269
0.606073	58.5702	1.72381	39.3022	31.6704	34.5645	28.9983
1.39918	58.5702	1.72381	39.3484	33.3106	35.1633	29.4376
2.19228	58.5702	1.72381	39.3775	34.3481	35.677	29.8367
2.98538	58.5702	1.72381	39.3933	35.041	36.1174	30.2025
3.77849	58.5702	1.72381	39.3942	35.6185	36.5218	30.5174
4.57159	58.5702	1.72381	39.3743	36.1062	36.9096	30.8159
5.36469	58.5702	1.72381	39.3238	36.5556	37.2638	31.0185
6.1578	58.5702	1.72381	39.2497	36.9573	37.4845	31.2782
6.9509	58.5702	1.72381	39.1311	37.3219	37.7512	31.4731
7.744	58.5702	1.72381	38.9045	37.6162	37.8505	31.6454
8.53711	58.5702	1.72381	38.4733	37.8789	37.9657	31.7819
9.33021	58.5702	1.72381	37.6438	38.0142	38.0279	31.8918
10.1233	58.5702	1.72381	35.9297	38.0486	38.0877	31.9472
10.9164	58.5702	1.72381	33.62	37.9949	38.0899	31.9267
11.7095	58.5702	1.72381	28.5868	37.8993	38.1283	31.8303
12.5026	58.5702	1.72381	10.4771	37.5683	38.0381	31.6969
13.2957	58.5702	1.72381	-107.497	36.4824	37.8522	31.4363
14.0888	58.5702	1.72381	0	34.7707	37.4337	31.0773
14.8819	58.5702	1.72381	0	32.8662	36.4707	30.3806
15.675	58.5702	1.72381	0	30.1096	34.0368	28.745
16.4681	58.5702	1.72381	0	22.1847	26.2215	21.818
17.2612	58.5702	1.72381	0	0	0	0
18.0543	58.5702	1.72381	0	0	0	0
-4.94551	59.9484	1.76022	37.7354	0	0	0
-4.15241	59.9484	1.76022	38.1097	0	0	24.5268
-3.35931	59.9484	1.76022	38.4419	0	0	25.7691
-2.5662	59.9484	1.76022	38.7137	0	28.0175	26.6043
-1.7731	59.9484	1.76022	38.9091	0	30.7648	27.2925
-0.979996	59.9484	1.76022	39.0461	0	32.624	27.8832
-0.186892	59.9484	1.76022	39.1623	29.2201	33.7831	28.409
0.606211	59.9484	1.76022	39.2345	31.6232	34.517	28.88
1.39931	59.9484	1.76022	39.28	33.2633	35.1158	29.3187
2.19242	59.9484	1.76022	39.3088	34.3006	35.6294	29.7169
2.98552	59.9484	1.76022	39.3243	34.9935	36.0697	30.0816
3.77862	59.9484	1.76022	39.3251	35.571	36.4739	30.3951
4.57173	59.9484	1.76022	39.3049	36.0586	36.8612	30.6922
5.36483	59.9484	1.76022	39.2541	36.5079	37.2145	30.8931
6.15794	59.9484	1.76022	39.1803	36.9094	37.4336	31.1512
6.95104	59.9484	1.76022	39.0614	37.2734	37.6985	31.3447
7.74414	59.9484	1.76022	38.8338	37.5665	37.796	31.5156
8.53725	59.9484	1.76022	38.4011	37.8276	37.9101	31.6507
9.33035	59.9484	1.76022	37.569	37.9608	37.9716	31.7594
10.1235	59.9484	1.76022	35.8347	37.9935	38.0311	31.8138
10.9166	59.9484	1.76022	33.4766	37.9388	38.0332	31.7927
11.7097	59.9484	1.76022	28.4446	37.8428	38.0715	31.6967
12.5028	59.9484	1.76022	9.88395	37.5117	37.9813	31.5639
13.2959	59.9484	1.76022	-110.891	36.4258	37.7954	31.3042
14.089	59.9484	1.76022	0	34.7141	37.3769	30.9459
14.8821	59.9484	1.76022	0	32.8096	36.414	30.2504
15.6752	59.9484	1.76022	0	30.053	33.9802	28.6159
16.4683	59.9484	1.76022	0	22.1281	26.1649	21.6902
17.2614	59.9484	1.76022	0	0	0	0
18.0545	59.9484	1.76022	0	0	0	0
-4.94531	61.3591	1.79532	37.6416	0	0	0
-4.15221	61.3591	1.79532	38.0151	0	0	24.334
-3.3591	61.3591	1.79532	38.346	0	0	25.5761
-2.566	61.3591	1.79532	38.6157	0	27.9325	26.4111
-1.7729	61.3591	1.79532	38.8086	0	30.6798	27.0989
-0.979793	61.3591	1.79532	38.9436	0	32.5388	27.6892
-0.186689	61.3591	1.79532	39.0579	29.1351	33.6977	28.2146
0.606414	61.3591	1.79532	39.129	31.5381	34.4315	28.685
1.39952	61.3591	1.79532	39.1738	33.178	35.0302	29.1231
2.19262	61.3591	1.79532	39.2022	34.2152	35.5438	29.5206
2.98572	61.3591	1.79532	39.2176	34.908	35.984	29.8842
3.77883	61.3591	1.79532	39.2181	35.4855	36.388	30.1964
4.57193	61.3591	1.79532	39.1977	35.973	36.7748	30.492
5.36503	61.3591	1.79532	39.1466	36.4222	37.1272	30.6913
6.15814	61.3591	1.79532	39.073	36.8234	37.3448	30.948
6.95124	61.3591	1.79532	38.9539	37.1868	37.608	31.1399
7.74435	61.3591	1.79532	38.7252	37.4789	37.7037	31.3095
8.53745	61.3591	1.79532	38.2909	37.7384	37.8167	31.4433
9.33055	61.3591	1.79532	37.4565	37.8696	37.8776	31.5509
10.1237	61.3591	1.79532	35.7038	37.9006	37.9367	31.6044
10.9168	61.3591	1.79532	33.2934	37.8451	37.9389	31.5828
11.7099	61.3591	1.79532	28.2627	37.7486	37.9771	31.487
12.503	61.3591	1.79532	9.24034	37.4175	37.8868	31.3549
13.2961	61.3591	1.79532	-114.401	36.3316	37.7009	31.0959
14.0892	61.3591	1.79532	0	34.6199	37.2824	30.7384
14.8823	61.3591	1.79532	0	32.7155	36.3198	30.0439
15.6754	61.3591	1.79532	0	29.9589	33.8861	28.4106
16.4685	61.3591	1.79532	0	22.034	26.0708	21.4861
17.2616	61.3591	1.79532	0	0	0	0
18.0547	61.3591	1.79532	0	0	0	0
-4.94518	62.8029	1.83329	37.5672	0	0	0
-4.15207	62.8029	1.83329	37.9398	0	0	24.1802
-3.35897	62.8029	1.83329	38.2693	0	0	25.4222
-2.56587	62.8029	1.83329	38.5369	0	27.8667	26.2568
-1.77276	62.8029	1.83329	38.7272	0	30.614	26.9443
-0.97966	62.8029	1.83329	38.8601	0	32.4729	27.5341
-0.186557	62.8029	1.83329	38.9726	29.0693	33.6317	28.0591
0.606547	62.8029	1.83329	39.0424	31.4723	34.3655	28.529
1.39965	62.8029	1.83329	39.0866	33.112	34.9641	28.9664
2.19275	62.8029	1.83329	39.1147	34.1492	35.4776	29.3631
2.98586	62.8029	1.83329	39.1298	34.8419	35.9177	29.7256
3.77896	62.8029	1.83329	39.1301	35.4193	36.3215	30.0364
4.57206	62.8029	1.83329	39.1094	35.9068	36.7078	30.3305
5.36517	62.8029	1.83329	39.058	36.3559	37.0592	30.528
6.15827	62.8029	1.83329	38.9846	36.7568	37.2752	30.7832
6.95137	62.8029	1.83329	38.8652	37.1196	37.5366	30.9737
7.74448	62.8029	1.83329	38.6354	37.4106	37.6305	31.1419
8.53758	62.8029	1.83329	38.1995	37.6684	37.7424	31.2744
9.33068	62.8029	1.83329	37.363	37.7974	37.8026	31.3809
10.1238	62.8029	1.83329	35.5935	37.8269	37.8615	31.4333
10.9169	62.8029	1.83329	33.127	37.7703	37.8636	31.4111
11.71	62.8029	1.83329	28.0976	37.6735	37.9017	31.3157
12.5031	62.8029	1.83329	8.60277	37.3423	37.8114	31.1842
13.2962	62.8029	1.83329	-117.973	36.2564	37.6255	30.9261
14.0893	62.8029	1.83329	0	34.5447	37.207	30.5692
14.8824	62.8029	1.83329	0	32.6403	36.2445	29.8759
15.6755	62.8029	1.83329	0	29.8837	33.8109	28.2437
16.4686	62.8029	1.83329	0	21.9588	25.9956	21.3206
17.2617	62.8029	1.83329	0	0	0	0
18.0548	62.8029	1.83329	0	0	0	0
-4.94505	64.2807	1.87207	37.4805	0	0	0
-4.15194	64.2807	1.87207	37.8521	0	0	24.0018
-3.35884	64.2807	1.87207	38.1802	0	0	25.2436
-2.56574	64.2807	1.87207	38.4456	0	27.7887	26.0779
-1.77263	64.2807	1.87207	38.6334	0	30.536	26.765
-0.979529	64.2807	1.87207	38.7643	0	32.3947	27.3544
-0.186426	64.2807	1.87207	38.8748	28.9913	33.5534	27.8789
0.606678	64.2807	1.87207	38.9435	31.3942	34.2872	28.3483
1.39978	64.2807	1.87207	38.9871	33.0338	34.8858	28.7851
2.19288	64.2807	1.87207	39.0148	34.0709	35.3992	29.1809
2.98599	64.2807	1.87207	39.0297	34.7636	35.8392	29.5423
3.77909	64.2807	1.87207	39.0297	35.341	36.2427	29.8517
4.57219	64.2807	1.87207	39.0087	35.8284	36.6285	30.1442
5.3653	64.2807	1.87207	38.957	36.2773	36.979	30.3401
6.1584	64.2807	1.87207	38.8838	36.6779	37.1933	30.5938
6.95151	64.2807	1.87207	38.764	37.0402	37.453	30.7827
7.74461	64.2807	1.87207	38.5331	37.33	37.545	30.9495
8.53771	64.2807	1.87207	38.0957	37.5861	37.6559	31.0808
9.33082	64.2807	1.87207	37.2572	37.713	37.7155	31.1861
10.1239	64.2807	1.87207	35.4726	37.7408	37.774	31.2376
10.917	64.2807	1.87207	32.9462	37.6834	37.776	31.2148
11.7101	64.2807	1.87207	27.9181	37.5861	37.8141	31.1198
12.5032	64.2807	1.87207	7.93964	37.2548	37.7237	30.9888
13.2963	64.2807	1.87207	-121.639	36.1689	37.5378	30.7315
14.0894	64.2807	1.87207	0	34.4573	37.1194	30.3754
14.8825	64.2807	1.87207	0	32.5529	36.157	29.6832
15.6756	64.2807	1.87207	0	29.7963	33.7234	28.0521
16.4687	64.2807	1.87207	0	21.8714	25.9082	21.1304
17.2618	64.2807	1.87207	0	0	0	0
18.055	64.2807	1.87207	0	0	0	0
-4.94492	65.7933	1.9117	37.3759	0	0	0
-4.15181	65.7933	1.9117	37.7466	0	0	23.7878
-3.35871	65.7933	1.9117	38.0732	0	0	25.0293
-2.56561	65.7933	1.9117	38.3364	0	27.693	25.8633
-1.7725	65.7933	1.9117	38.5216	0	30.4402	26.5501
-0.979401	65.7933	1.9117	38.6506	0	32.2988	27.1391
-0.186297	65.7933	1.9117	38.7593	28.8955	33.4574	27.6631
0.606806	65.7933	1.9117	38.8269	31.2984	34.1911	28.1319
1.39991	65.7933	1.9117	38.8698	32.9379	34.7897	28.5681
2.19301	65.7933	1.9117	38.8971	33.9749	35.303	28.963
2.98612	65.7933	1.9117	38.9117	34.6675	35.7429	29.3233
3.77922	65.7933	1.9117	38.9116	35.2448	36.1461	29.6313
4.57232	65.7933	1.9117	38.8902	35.7322	36.5314	29.9223
5.36543	65.7933	1.9117	38.8381	36.181	36.881	30.1164
6.15853	65.7933	1.9117	38.765	36.5813	37.0937	30.3686
6.95163	65.7933	1.9117	38.6449	36.9429	37.3516	30.5561
7.74474	65.7933	1.9117	38.4128	37.2316	37.4418	30.7215
8.53784	65.7933	1.9117	37.9739	37.486	37.5515	30.8516
9.33094	65.7933	1.9117	37.1335	37.6109	37.6105	30.9557
10.124	65.7933	1.9117	35.3355	37.637	37.6687	31.0062
10.9172	65.7933	1.9117	32.7455	37.5786	37.6707	30.9829
11.7103	65.7933	1.9117	27.7186	37.481	37.7087	30.8881
12.5034	65.7933	1.9117	7.24514	37.1495	37.6183	30.7578
13.2965	65.7933	1.9117	-125.408	36.0637	37.4324	30.5013
14.0896	65.7933	1.9117	0	34.3521	37.014	30.1459
14.8827	65.7933	1.9117	0	32.4476	36.0517	29.4547
15.6758	65.7933	1.9117	0	29.691	33.6182	27.8248
16.4689	65.7933	1.9117	0	21.7662	25.803	20.9044
17.262	65.7933	1.9117	0	0	0	0
18.0551	65.7933	1.9117	0	0	0	0
-4.94479	67.3415	1.95217	37.2432	0	0	0
-4.15169	67.3415	1.95217	37.613	0	0	23.5175
-3.35858	67.3415	1.95217	37.9381	0	0	24.7588
-2.56548	67.3415	1.95217	38.199	0	27.5691	25.5925
-1.77238	67.3415	1.95217	38.3816	0	30.3163	26.2789
-0.979274	67.3415	1.95217	38.5088	0	32.1748	26.8675
-0.18617	67.3415	1.95217	38.6156	28.7717	33.3333	27.3911
0.606933	67.3415	1.95217	38.6821	31.1745	34.0669	27.8593
1.40004	67.3415	1.95217	38.7244	32.8139	34.6655	28.2948
2.19314	67.3415	1.95217	38.7514	33.8507	35.1788	28.6889
2.98624	67.3415	1.95217	38.7657	34.5434	35.6186	29.0481
3.77935	67.3415	1.95217	38.7652	35.1206	36.0215	29.3546
4.57245	67.3415	1.95217	38.7435	35.6079	36.4063	29.6441
5.36555	67.3415	1.95217	38.691	36.0566	36.7549	29.8365
6.15866	67.3415	1.95217	38.618	36.4566	36.9659	30.0872
6.95176	67.3415	1.95217	38.4975	36.8176	37.222	30.2732
7.74486	67.3415	1.95217	38.2642	37.1051	37.3104	30.4373
8.53797	67.3415	1.95217	37.8237	37.3578	37.4191	30.566
9.33107	67.3415	1.95217	36.9817	37.4805	37.4774	30.669
10.1242	67.3415	1.95217	35.1718	37.5051	37.5354	30.7185
10.9173	67.3415	1.95217	32.5144	37.4458	37.5373	30.6947
11.7104	67.3415	1.95217	27.4888	37.3477	37.5752	30.6003
12.5035	67.3415	1.95217	6.50867	37.0162	37.4848	30.4706
13.2966	67.3415	1.95217	-129.291	35.9304	37.2989	30.2148
14.0897	67.3415	1.95217	0	34.2188	36.8805	29.8601
14.8828	67.3415	1.95217	0	32.3144	35.9184	29.17
15.6759	67.3415	1.95217	0	29.5578	33.4849	27.5412
16.469	67.3415	1.95217	0	21.6329	25.6697	20.6223
17.2621	67.3415	1.95217	0	0	0	0
18.0552	67.3415	1.95217	0	0	0	0
-4.94473	68.9261	1.99581	37.1582	0	0	0
-4.15163	68.9261	1.99581	37.527	0	0	23.343
-3.35852	68.9261	1.99581	37.8506	0	0	24.5841
-2.56542	68.9261	1.99581	38.1091	0	27.4929	25.4174
-1.77231	68.9261	1.99581	38.2891	0	30.24	26.1034
-0.979211	68.9261	1.99581	38.4143	0	32.0984	26.6916
-0.186108	68.9261	1.99581	38.5193	28.6954	33.257	27.2147
0.606996	68.9261	1.99581	38.5846	31.0982	33.9905	27.6823
1.4001	68.9261	1.99581	38.6263	32.7375	34.5891	28.1172
2.1932	68.9261	1.99581	38.6529	33.7744	35.1023	28.5103
2.98631	68.9261	1.99581	38.667	34.4669	35.542	28.8684
3.77941	68.9261	1.99581	38.6663	35.0442	35.9446	29.1734
4.57251	68.9261	1.99581	38.6442	35.5314	36.3289	29.4613
5.36562	68.9261	1.99581	38.5913	35.9799	36.6764	29.6519
6.15872	68.9261	1.99581	38.5183	36.3797	36.8858	29.901
6.95182	68.9261	1.99581	38.3973	36.74	37.14	30.0856
7.74493	68.9261	1.99581	38.1628	37.0262	37.2265	30.2482
8.53803	68.9261	1.99581	37.7208	37.2771	37.3341	30.3757
9.33113	68.9261	1.99581	36.877	37.3977	37.3918	30.4775
10.1242	68.9261	1.99581	35.0569	37.4206	37.4495	30.526
10.9173	68.9261	1.99581	32.3284	37.3603	37.4513	30.5016
11.7104	68.9261	1.99581	27.304	37.2619	37.4891	30.4076
12.5035	68.9261	1.99581	5.80536	36.9302	37.3986	30.2784
13.2967	68.9261	1.99581	-133.214	35.8444	37.2128	30.0235
14.0898	68.9261	1.99581	0	34.1327	36.7944	29.6694
14.8829	68.9261	1.99581	0	32.2283	35.8323	28.9804
15.676	68.9261	1.99581	0	29.4717	33.3989	27.3528
16.4691	68.9261	1.99581	0	21.5469	25.5837	20.4353
17.2622	68.9261	1.99581	0	0	0	0
18.0553	68.9261	1.99581	0	0	0	0
-4.94467	70.548	2.04043	37.0554	0	0	0
-4.15156	70.548	2.04043	37.4232	0	0	23.1329
-3.35846	70.548	2.04043	37.7452	0	0	24.3738
-2.56536	70.548	2.04043	38.0013	0	27.3988	25.2067
-1.77225	70.548	2.04043	38.1786	0	30.146	25.8924
-0.979149	70.548	2.04043	38.302	0	32.0043	26.4801
-0.186046	70.548	2.04043	38.4052	28.6014	33.1628	27.0027
0.607058	70.548	2.04043	38.4694	31.0042	33.8963	27.4697
1.40016	70.548	2.04043	38.5105	32.6434	34.4948	27.9039
2.19326	70.548	2.04043	38.5367	33.6802	35.008	28.2961
2.98637	70.548	2.04043	38.5505	34.3727	35.4476	28.653
3.77947	70.548	2.04043	38.5495	34.9499	35.85	28.9565
4.57257	70.548	2.04043	38.527	35.4371	36.2336	29.2427
5.36568	70.548	2.04043	38.4736	35.8855	36.5802	29.4316
6.15878	70.548	2.04043	38.4006	36.2849	36.7877	29.6792
6.95189	70.548	2.04043	38.2792	36.6446	37.0401	29.8622
7.74499	70.548	2.04043	38.0435	36.9296	37.1247	30.0235
8.53809	70.548	2.04043	37.5997	37.1787	37.2312	30.1497
9.3312	70.548	2.04043	36.7544	37.297	37.2884	30.2503
10.1243	70.548	2.04043	34.9253	37.3183	37.3457	30.2978
10.9174	70.548	2.04043	32.1224	37.2571	37.3475	30.2729
11.7105	70.548	2.04043	27.0991	37.1582	37.3852	30.1792
12.5036	70.548	2.04043	5.06971	36.8264	37.2947	30.0507
13.2967	70.548	2.04043	-137.246	35.7406	37.1088	29.7964
14.0898	70.548	2.04043	0	34.0289	36.6904	29.443
14.8829	70.548	2.04043	0	32.1245	35.7285	28.7552
15.676	70.548	2.04043	0	29.3679	33.2951	27.1287
16.4691	70.548	2.04043	0	21.443	25.4799	20.2127
17.2622	70.548	2.04043	0	0	0	0
18.0553	70.548	2.04043	0	0	0	0
-4.9446	72.2081	2.08606	36.9245	0	0	0
-4.1515	72.2081	2.08606	37.2913	0	0	22.8666
-3.3584	72.2081	2.08606	37.6116	0	0	24.1072
-2.56529	72.2081	2.08606	37.8653	0	27.2767	24.9398
-1.77219	72.2081	2.08606	38.04	0	30.0238	25.6251
-0.979088	72.2081	2.08606	38.1615	0	31.8821	26.2123
-0.185984	72.2081	2.08606	38.2629	28.4792	33.0405	26.7344
0.607119	72.2081	2.08606	38.326	30.882	33.774	27.2009
1.40022	72.2081	2.08606	38.3665	32.5211	34.3725	27.6344
2.19333	72.2081	2.08606	38.3924	33.5579	34.8856	28.0257
2.98643	72.2081	2.08606	38.4059	34.2504	35.325	28.3813
3.77953	72.2081	2.08606	38.4045	34.8276	35.7272	28.6833
4.57264	72.2081	2.08606	38.3816	35.3147	36.1102	28.9679
5.36574	72.2081	2.08606	38.3277	35.7629	36.4558	29.155
6.15884	72.2081	2.08606	38.2547	36.162	36.6616	29.4011
6.95195	72.2081	2.08606	38.1328	36.521	36.9121	29.5826
7.74505	72.2081	2.08606	37.8958	36.8047	36.9948	29.7425
8.53815	72.2081	2.08606	37.4504	37.0521	37.1003	29.8674
9.33126	72.2081	2.08606	36.6036	37.1682	37.1568	29.9669
10.1244	72.2081	2.08606	34.7667	37.1879	37.2139	30.0134
10.9175	72.2081	2.08606	31.8859	37.1257	37.2155	29.988
11.7106	72.2081	2.08606	26.8638	37.0265	37.2533	29.8946
12.5037	72.2081	2.08606	4.29108	36.6945	37.1627	29.7666
13.2968	72.2081	2.08606	-141.399	35.6086	36.9768	29.5131
14.0899	72.2081	2.08606	0	33.897	36.5584	29.1604
14.883	72.2081	2.08606	0	31.9926	35.5965	28.4736
15.6761	72.2081	2.08606	0	29.236	33.1631	26.8483
16.4692	72.2081	2.08606	0	21.3111	25.348	19.9338
17.2623	72.2081	2.08606	0	0	0	0
18.0554	72.2081	2.08606	0	0	0	0
-4.94454	73.9072	2.1327	36.7423	0	0	0
-4.15144	73.9072	2.1327	37.1081	0	0	22.4978
-3.35834	73.9072	2.1327	37.4267	0	0	23.7382
-2.56523	73.9072	2.1327	37.6779	0	27.1033	24.5704
-1.77213	73.9072	2.1327	37.8499	0	29.8504	25.2553
-0.979026	73.9072	2.1327	37.9697	0	31.7087	25.8421
-0.185923	73.9072	2.1327	38.0693	28.3058	32.8671	26.3637
0.60718	73.9072	2.1327	38.1314	30.7086	33.6005	26.8296
1.40028	73.9072	2.1327	38.1713	32.3477	34.1989	27.2624
2.19339	73.9072	2.1327	38.1969	33.3844	34.712	27.6527
2.98649	73.9072	2.1327	38.21	34.0769	35.1513	28.0072
3.77959	73.9072	2.1327	38.2084	34.654	35.5531	28.3076
4.5727	73.9072	2.1327	38.185	35.1411	35.9356	28.5906
5.3658	73.9072	2.1327	38.1306	35.5891	36.2801	28.7759
6.1589	73.9072	2.1327	38.0574	35.9879	36.4842	29.0204
6.95201	73.9072	2.1327	37.935	36.3462	36.7328	29.2004
7.74511	73.9072	2.1327	37.6967	36.6287	36.8137	29.3589
8.53821	73.9072	2.1327	37.2496	36.8742	36.9181	29.4826
9.33132	73.9072	2.1327	36.4013	36.9882	36.974	29.581
10.1244	73.9072	2.1327	34.5579	37.0062	37.0308	29.6265
10.9175	73.9072	2.1327	31.5959	36.9431	37.0324	29.6006
11.7106	73.9072	2.1327	26.5747	36.8435	37.07	29.5075
12.5037	73.9072	2.1327	3.44601	36.5114	36.9795	29.3801
13.2968	73.9072	2.1327	-145.697	35.4255	36.7936	29.1273
14.0899	73.9072	2.1327	0	33.7139	36.3752	28.7753
14.883	73.9072	2.1327	0	31.8095	35.4134	28.0896
15.6761	73.9072	2.1327	0	29.0529	32.98	26.4654
16.4692	73.9072	2.1327	0	21.128	25.1649	19.5524
17.2624	73.9072	2.1327	0	0	0	0
18.0555	73.9072	2.1327	0	0	0	0
-4.94448	75.6463	2.1804	36.4351	0	0	0
-4.15138	75.6463	2.1804	36.7998	0	0	21.879
-3.35828	75.6463	2.1804	37.1167	0	0	23.1191
-2.56517	75.6463	2.1804	37.3655	0	26.8049	23.951
-1.77207	75.6463	2.1804	37.5348	0	29.552	24.6354
-0.978966	75.6463	2.1804	37.6528	0	31.4102	25.2218
-0.185862	75.6463	2.1804	37.7508	28.0074	32.5685	25.7429
0.607241	75.6463	2.1804	37.8118	30.4102	33.302	26.2082
1.40034	75.6463	2.1804	37.8512	32.0492	33.9004	26.6403
2.19345	75.6463	2.1804	37.8763	33.0859	34.4134	27.0297
2.98655	75.6463	2.1804	37.8892	33.7784	34.8525	27.3829
3.77965	75.6463	2.1804	37.8872	34.3554	35.2541	27.6818
4.57276	75.6463	2.1804	37.8634	34.8424	35.636	27.9631
5.36586	75.6463	2.1804	37.8084	35.2903	35.9794	28.1467
6.15897	75.6463	2.1804	37.735	35.6888	36.1817	28.3896
6.95207	75.6463	2.1804	37.6121	36.0464	36.4285	28.5682
7.74517	75.6463	2.1804	37.3724	36.3275	36.5075	28.7254
8.53828	75.6463	2.1804	36.9235	36.5712	36.6108	28.8478
9.33138	75.6463	2.1804	36.0737	36.683	36.6662	28.945
10.1245	75.6463	2.1804	34.2248	36.6994	36.7228	28.9895
10.9176	75.6463	2.1804	31.1785	36.6355	36.7242	28.9631
11.7107	75.6463	2.1804	26.1582	36.5355	36.7618	28.8704
12.5038	75.6463	2.1804	2.46034	36.2033	36.6712	28.7435
13.2969	75.6463	2.1804	-150.217	35.1174	36.4853	28.4915
14.09	75.6463	2.1804	0	33.4057	36.067	28.14
14.8831	75.6463	2.1804	0	31.5013	35.1052	27.4554
15.6762	75.6463	2.1804	0	28.7447	32.6718	25.8324
16.4693	75.6463	2.1804	0	20.8198	24.8567	18.9209
17.2624	75.6463	2.1804	0	0	0	0
18.0555	75.6463	2.1804	0	0	0	0
-4.94442	77.4264	2.22917	0	0	0	0
-4.15132	77.4264	2.22917	0	0	0	0
-3.35822	77.4264	2.22917	0	0	0	0
-2.56511	77.4264	2.22917	0	0	0	0
-1.77201	77.4264	2.22917	0	0	0	0
-0.978906	77.4264	2.22917	0	0	18.524	0
-0.185802	77.4264	2.22917	0	0	22.2443	0
0.607301	77.4264	2.22917	0	0	25.5665	0
1.4004	77.4264	2.22917	0	19.878	28.7841	0
2.19351	77.4264	2.22917	0	23.432	31.9734	0
2.98661	77.4264	2.22917	0	26.7128	35.156	0
3.77972	77.4264	2.22917	0	29.9192	38.3375	0
4.57282	77.4264	2.22917	0	33.1079	41.5205	0
5.36592	77.4264	2.22917	0	36.3036	44.7151	0
6.15903	77.4264	2.22917	0	39.5757	47.9871	0
6.95213	77.4264	2.22917	0	43.9037	52.3152	0
7.74523	77.4264	2.22917	0	42.357	50.7686	0
8.53834	77.4264	2.22917	0	40.1156	48.5274	0
9.33144	77.4264	2.22917	0	37.7022	46.1144	0
10.1245	77.4264	2.22917	0	35.1432	43.5572	0
10.9176	77.4264	2.22917	0	32.2936	40.7151	0
11.7107	77.4264	2.22917	0	29.1525	37.6069	0
12.5039	77.4264	2.22917	0	25.7949	34.3755	0
13.297	77.4264	2.22917	0	21.8845	31.0401	0
14.0901	77.4264	2.22917	0	0	27.3952	0
14.8832	77.4264	2.22917	0	0	23.5731	0
15.6763	77.4264	2.22917	0	0	18.0602	0
16.4694	77.4264	2.22917	0	0	0	0
17.2625	77.4264	2.22917	0	0	0	0
18.0556	77.4264	2.22917	0	0	0	0
-4.94442	79.2483	2.28162	0	0	0	0
-4.15132	79.2483	2.28162	0	0	0	0
-3.35822	79.2483	2.28162	0	0	0	0
-2.56511	79.2483	2.28162	0	0	0	0
-1.77201	79.2483	2.28162	0	0	0	0
-0.978906	79.2483	2.28162	0	0	0	0
-0.185802	79.2483	2.28162	0	0	0	0
0.607301	79.2483	2.28162	0	0	0	0
1.4004	79.2483	2.28162	0	0	0	0
2.19351	79.2483	2.28162	0	0	0	0
2.98661	79.2483	2.28162	0	0	0	0
3.77972	79.2483	2.28162	0	0	0	0
4.57282	79.2483	2.28162	0	0	0	0
5.36592	79.2483	2.28162	0	0	0	0
6.15903	79.2483	2.28162	0	0	0	0
6.95213	79.2483	2.28162	0	0	0	0
7.74523	79.2483	2.28162	0	0	0	0
8.53834	79.2483	2.28162	0	0	0	0
9.33144	79.2483	2.28162	0	0	0	0
10.1245	79.2483	2.28162	0	0	0	0
10.9176	79.2483	2.28162	0	0	0	0
11.7107	79.2483	2.28162	0	0	0	0
12.5039	79.2483	2.28162	0	0	0	0
13.297	79.2483	2.28162	0	0	0	0
14.0901	79.2483	2.28162	0	0	0	0
14.8832	79.2483	2.28162	0	0	0	0
15.6763	79.2483	2.28162	0	0	0	0
16.4694	79.2483	2.28162	0	0	0	0
17.2625	79.2483	2.28162	0	0	0	0
18.0556	79.2483	2.28162	0	0	0	0
-4.94442	81.1131	2.33531	0	0	0	0
-4.15132	81.1131	2.33531	0	0	0	0
-3.35822	81.1131	2.33531	0	0	0	0
-2.56511	81.1131	2.33531	0	0	0	0
-1.77201	81.1131	2.33531	0	0	0	0
-0.978906	81.1131	2.33531	0	0	0	0
-0.185802	81.1131	2.33531	0	0	0	0
0.607301	81.1131	2.33531	0	0	0	0
1.4004	81.1131	2.33531	0	0	0	0
2.19351	81.1131	2.33531	0	0	0	0
2.98661	81.1131	2.33531	0	0	0	0
3.77972	81.1131	2.33531	0	0	0	0
4.57282	81.1131	2.33531	0	0	0	0
5.36592	81.1131	2.33531	0	0	0	0
6.15903	81.1131	2.33531	0	0	0	0
6.95213	81.1131	2.33531	0	0	0	0
7.74523	81.1131	2.33531	0	0	0	0
8.53834	81.1131	2.33531	0	0	0	0
9.33144	81.1131	2.33531	0	0	0	0
10.1245	81.1131	2.33531	0	0	0	0
10.9176	81.1131	2.33531	0	0	0	0
11.7107	81.1131	2.33531	0	0	0	0
12.5039	81.1131	2.33531	0	0	0	0
13.297	81.1131	2.33531	0	0	0	0
14.0901	81.1131	2.33531	0	0	0	0
14.8832	81.1131	2.33531	0	0	0	0
15.6763	81.1131	2.33531	0	0	0	0
16.4694	81.1131	2.33531	0	0	0	0
17.2625	81.1131	2.33531	0	0	0	0
18.0556	81.1131	2.33531	0	0	0	0
-4.94442	83.0218	2.39026	0	0	0	0
-4.15132	83.0218	2.39026	0	0	0	0
-3.35822	83.0218	2.39026	0	0	0	0
-2.56511	83.0218	2.39026	0	0	0	0
-1.77201	83.0218	2.39026	0	0	0	0
-0.978906	83.0218	2.39026	0	0	0	0
-0.185802	83.0218	2.39026	0	0	0	0
0.607301	83.0218	2.39026	0	0	0	0
1.4004	83.0218	2.39026	0	0	0	0
2.19351	83.0218	2.39026	0	0	0	0
2.98661	83.0218	2.39026	0	0	0	0
3.77972	83.0218	2.39026	0	0	0	0
4.57282	83.0218	2.39026	0	0	0	0
5.36592	83.0218	2.39026	0	0	0	0
6.15903	83.0218	2.39026	0	0	0	0
6.95213	83.0218	2.39026	0	0	0	0
7.74523	83.0218	2.39026	0	0	0	0
8.53834	83.0218	2.39026	0	0	0	0
9.33144	83.0218	2.39026	0	0	0	0
10.1245	83.0218	2.39026	0	0	0	0
10.9176	83.0218	2.39026	0	0	0	0
11.7107	83.0218	2.39026	0	0	0	0
12.5039	83.0218	2.39026	0	0	0	0
13.297	83.0218	2.39026	0	0	0	0
14.0901	83.0218	2.39026	0	0	0	0
14.8832	83.0218	2.39026	0	0	0	0
15.6763	83.0218	2.39026	0	0	0	0
16.4694	83.0218	2.39026	0	0	0	0
17.2625	83.0218	2.39026	0	0	0	0
18.0556	83.0218	2.39026	0	0	0	0
-4.94442	84.9753	2.44651	0	0	0	0
-4.15132	84.9753	2.44651	0	0	0	0
-3.35822	84.9753	2.44651	0	0	0	0
-2.56511	84.9753	2.44651	0	0	0	0
-1.77201	84.9753	2.44651	0	0	0	0
-0.978906	84.9753	2.44651	0	0	0	0
-0.185802	84.9753	2.44651	0	0	0	0
0.607301	84.9753	2.44651	0	0	0	0
1.4004	84.9753	2.44651	0	0	0	0
2.19351	84.9753	2.44651	0	0	0	0
2.98661	84.9753	2.44651	0	0	0	0
3.77972	84.9753	2.44651	0	0	0	0
4.57282	84.9753	2.44651	0	0	0	0
5.36592	84.9753	2.44651	0	0	0	0
6.15903	84.9753	2.44651	0	0	0	0
6.95213	84.9753	2.44651	0	0	0	0
7.74523	84.9753	2.44651	0	0	0	0
8.53834	84.9753	2.44651	0	0	0	0
9.33144	84.9753	2.44651	0	0	0	0
10.1245	84.9753	2.44651	0	0	0	0
10.9176	84.9753	2.44651	0	0	0	0
11.7107	84.9753	2.44651	0	0	0	0
12.5039	84.9753	2.44651	0	0	0	0
13.297	84.9753	2.44651	0	0	0	0
14.0901	84.9753	2.44651	0	0	0	0
14.8832	84.9753	2.44651	0	0	0	0
15.6763	84.9753	2.44651	0	0	0	0
16.4694	84.9753	2.44651	0	0	0	0
17.2625	84.9753	2.44651	0	0	0	0
18.0556	84.9753	2.44651	0	0	0	0
-4.94442	86.9749	2.50408	0	0	0	0
-4.15132	86.9749	2.50408	0	0	0	0
-3.35822	86.9749	2.50408	0	0	0	0
-2.56511	86.9749	2.50408	0	0	0	0
-1.77201	86.9749	2.50408	0	0	0	0
-0.978906	86.9749	2.50408	0	0	0	0
-0.185802	86.9749	2.50408	0	0	0	0
0.607301	86.9749	2.50408	0	0	0	0
1.4004	86.9749	2.50408	0	0	0	0
2.19351	86.9749	2.50408	0	0	0	0
2.98661	86.9749	2.50408	0	0	0	0
3.77972	86.9749	2.50408	0	0	0	0
4.57282	86.9749	2.50408	0	0	0	0
5.36592	86.9749	2.50408	0	0	0	0
6.15903	86.9749	2.50408	0	0	0	0
6.95213	86.9749	2.50408	0	0	0	0
7.74523	86.9749	2.50408	0	0	0	0
8.53834	86.9749	2.50408	0	0	0	0
9.33144	86.9749	2.50408	0	0	0	0
10.1245	86.9749	2.50408	0	0	0	0
10.9176	86.9749	2.50408	0	0	0	0
11.7107	86.9749	2.50408	0	0	0	0
12.5039	86.9749	2.50408	0	0	0	0
13.297	86.9749	2.50408	0	0	0	0
14.0901	86.9749	2.50408	0	0	0	0
14.8832	86.9749	2.50408	0	0	0	0
15.6763	86.9749	2.50408	0	0	0	0
16.4694	86.9749	2.50408	0	0	0	0
17.2625	86.9749	2.50408	0	0	0	0
18.0556	86.9749	2.50408	0	0	0	0
-4.94442	89.0215	2.563	0	0	0	0
-4.15132	89.0215	2.563	0	0	0	0
-3.35822	89.0215	2.563	0	0	0	0
-2.56511	89.0215	2.563	0	0	0	0
-1.77201	89.0215	2.563	0	0	0	0
-0.978906	89.0215	2.563	0	0	0	0
-0.185802	89.0215	2.563	0	0	0	0
0.607301	89.0215	2.563	0	0	0	0
1.4004	89.0215	2.563	0	0	0	0
2.19351	89.0215	2.563	0	0	0	0
2.98661	89.0215	2.563	0	0	0	0
3.77972	89.0215	2.563	0	0	0	0
4.57282	89.0215	2.563	0	0	0	0
5.36592	89.0215	2.563	0	0	0	0
6.15903	89.0215	2.563	0	0	0	0
6.95213	89.0215	2.563	0	0	0	0
7.74523	89.0215	2.563	0	0	0	0
8.53834	89.0215	2.563	0	0	0	0
9.33144	89.0215	2.563	0	0	0	0
10.1245	89.0215	2.563	0	0	0	0
10.9176	89.0215	2.563	0	0	0	0
11.7107	89.0215	2.563	0	0	0	0
12.5039	89.0215	2.563	0	0	0	0
13.297	89.0215	2.563	0	0	0	0
14.0901	89.0215	2.563	0	0	0	0
14.8832	89.0215	2.563	0	0	0	0
15.6763	89.0215	2.563	0	0	0	0
16.4694	89.0215	2.563	0	0	0	0
17.2625	89.0215	2.563	0	0	0	0
18.0556	89.0215	2.563	0	0	0	0
-4.94442	91.1163	2.62331	0	0	0	0
-4.15132	91.1163	2.62331	0	0	0	0
-3.35822	91.1163	2.62331	0	0	0	0
-2.56511	91.1163	2.62331	0	0	0	0
-1.77201	91.1163	2.62331	0	0	0	0
-0.978906	91.1163	2.62331	0	0	0	0
-0.185802	91.1163	2.62331	0	0	0	0
0.607301	91.1163	2.62331	0	0	0	0
1.4004	91.1163	2.62331	0	0	0	0
2.19351	91.1163	2.62331	0	0	0	0
2.98661	91.1163	2.62331	0	0	0	0
3.77972	91.1163	2.62331	0	0	0	0
4.57282	91.1163	2.62331	0	0	0	0
5.36592	91.1163	2.62331	0	0	0	0
6.15903	91.1163	2.62331	0	0	0	0
6.95213	91.1163	2.62331	0	0	0	0
7.74523	91.1163	2.62331	0	0	0	0
8.53834	91.1163	2.62331	0	0	0	0
9.33144	91.1163	2.62331	0	0	0	0
10.1245	91.1163	2.62331	0	0	0	0
10.9176	91.1163	2.62331	0	0	0	0
11.7107	91.1163	2.62331	0	0	0	0
12.5039	91.1163	2.62331	0	0	0	0
13.297	91.1163	2.62331	0	0	0	0
14.0901	91.1163	2.62331	0	0	0	0
14.8832	91.1163	2.62331	0	0	0	0
15.6763	91.1163	2.62331	0	0	0	0
16.4694	91.1163	2.62331	0	0	0	0
17.2625	91.1163	2.62331	0	0	0	0
18.0556	91.1163	2.62331	0	0	0	0
-4.94442	93.2603	2.68504	0	0	0	0
-4.15132	93.2603	2.68504	0	0	0	0
-3.35822	93.2603	2.68504	0	0	0	0
-2.56511	93.2603	2.68504	0	0	0	0
-1.77201	93.2603	2.68504	0	0	0	0
-0.978906	93.2603	2.68504	0	0	0	0
-0.185802	93.2603	2.68504	0	0	0	0
0.607301	93.2603	2.68504	0	0	0	0
1.4004	93.2603	2.68504	0	0	0	0
2.19351	93.2603	2.68504	0	0	0	0
2.98661	93.2603	2.68504	0	0	0	0
3.77972	93.2603	2.68504	0	0	0	0
4.57282	93.2603	2.68504	0	0	0	0
5.36592	93.2603	2.68504	0	0	0	0
6.15903	93.2603	2.68504	0	0	0	0
6.95213	93.2603	2.68504	0	0	0	0
7.74523	93.2603	2.68504	0	0	0	0
8.53834	93.2603	2.68504	0	0	0	0
9.33144	93.2603	2.68504	0	0	0	0
10.1245	93.2603	2.68504	0	0	0	0
10.9176	93.2603	2.68504	0	0	0	0
11.7107	93.2603	2.68504	0	0	0	0
12.5039	93.2603	2.68504	0	0	0	0
13.297	93.2603	2.68504	0	0	0	0
14.0901	93.2603	2.68504	0	0	0	0
14.8832	93.2603	2.68504	0	0	0	0
15.6763	93.2603	2.68504	0	0	0	0
16.4694	93.2603	2.68504	0	0	0	0
17.2625	93.2603	2.68504	0	0	0	0
18.0556	93.2603	2.68504	0	0	0	0
-4.94442	95.4548	2.74822	0	0	0	0
-4.15132	95.4548	2.74822	0	0	0	0
-3.35822	95.4548	2.74822	0	0	0	0
-2.56511	95.4548	2.74822	0	0	0	0
-1.77201	95.4548	2.74822	0	0	0	0
-0.978906	95.4548	2.74822	0	0	0	0
-0.185802	95.4548	2.74822	0	0	0	0
0.607301	95.4548	2.74822	0	0	0	0
1.4004	95.4548	2.74822	0	0	0	0
2.19351	95.4548	2.74822	0	0	0	0
2.98661	95.4548	2.74822	0	0	0	0
3.77972	95.4548	2.74822	0	0	0	0
4.57282	95.4548	2.74822	0	0	0	0
5.36592	95.4548	2.74822	0	0	0	0
6.15903	95.4548	2.74822	0	0	0	0
6.95213	95.4548	2.74822	0	0	0	0
7.74523	95.4548	2.74822	0	0	0	0
8.53834	95.4548	2.74822	0	0	0	0
9.33144	95.4548	2.74822	0	0	0	0
10.1245	95.4548	2.74822	0	0	0	0
10.9176	95.4548	2.74822	0	0	0	0
11.7107	95.4548	2.74822	0	0	0	0
12.5039	95.4548	2.74822	0	0	0	0
13.297	95.4548	2.74822	0	0	0	0
14.0901	95.4548	2.74822	0	0	0	0
14.8832	95.4548	2.74822	0	0	0	0
15.6763	95.4548	2.74822	0	0	0	0
16.4694	95.4548	2.74822	0	0	0	0
17.2625	95.4548	2.74822	0	0	0	0
18.0556	95.4548	2.74822	0	0	0	0
-4.94442	97.701	2.81289	0	0	0	0
-4.15132	97.701	2.81289	0	0	0	0
-3.35822	97.701	2.81289	0	0	0	0
-2.56511	97.701	2.81289	0	0	0	0
-1.77201	97.701	2.81289	0	0	0	0
-0.978906	97.701	2.81289	0	0	0	0
-0.185802	97.701	2.81289	0	0	0	0
0.607301	97.701	2.81289	0	0	0	0
1.4004	97.701	2.81289	0	0	0	0
2.19351	97.701	2.81289	0	0	0	0
2.98661	97.701	2.81289	0	0	0	0
3.77972	97.701	2.81289	0	0	0	0
4.57282	97.701	2.81289	0	0	0	0
5.36592	97.701	2.81289	0	0	0	0
6.15903	97.701	2.81289	0	0	0	0
6.95213	97.701	2.81289	0	0	0	0
7.74523	97.701	2.81289	0	0	0	0
8.53834	97.701	2.81289	0	0	0	0
9.33144	97.701	2.81289	0	0	0	0
10.1245	97.701	2.81289	0	0	0	0
10.9176	97.701	2.81289	0	0	0	0
11.7107	97.701	2.81289	0	0	0	0
12.5039	97.701	2.81289	0	0	0	0
13.297	97.701	2.81289	0	0	0	0
14.0901	97.701	2.81289	0	0	0	0
14.8832	97.701	2.81289	0	0	0	0
15.6763	97.701	2.81289	0	0	0	0
16.4694	97.701	2.81289	0	0	0	0
17.2625	97.701	2.81289	0	0	0	0
18.0556	97.701	2.81289	0	0	0	0
-4.94442	100	2.87908	0	0	0	0
-4.15132	100	2.87908	0	0	0	0
-3.35822	100	2.87908	0	0	0	0
-2.56511	100	2.87908	0	0	0	0
-1.77201	100	2.87908	0	0	0	0
-0.978906	100	2.87908	0	0	0	0
-0.185802	100	2.87908	0	0	0	0
0.607301	100	2.87908	0	0	0	0
1.4004	100	2.87908	0	0	0	0
2.19351	100	2.87908	0	0	0	0
2.98661	100	2.87908	0	0	0	0
3.77972	100	2.87908	0	0	0	0
4.57282	100	2.87908	0	0	0	0
5.36592	100	2.87908	0	0	0	0
6.15903	100	2.87908	0	0	0	0
6.95213	100	2.87908	0	0	0	0
7.74523	100	2.87908	0	0	0	0
8.53834	100	2.87908	0	0	0	0
9.33144	100	2.87908	0	0	0	0
10.1245	100	2.87908	0	0	0	0
10.9176	100	2.87908	0	0	0	0
11.7107	100	2.87908	0	0	0	0
12.5039	100	2.87908	0	0	0	0
13.297	100	2.87908	0	0	0	0
14.0901	100	2.87908	0	0	0	0
14.8832	100	2.87908	0	0	0	0
15.6763	100	2.87908	0	0	0	0
16.4694	100	2.87908	0	0	0	0
17.2625	100	2.87908	0	0	0	0
18.0556	100	2.87908	0	0	0	0
